# File BD+191947
# Wavelength [nm]    Normalized Amplitude
   349.70         0.5555
   349.84         0.5494
   349.98         0.5450
   350.12         0.5409
   350.26         0.5365
   350.40         0.5318
   350.54         0.5274
   350.68         0.5242
   350.82         0.5225
   350.96         0.5219
   351.10         0.5218
   351.24         0.5219
   351.38         0.5225
   351.52         0.5242
   351.66         0.5274
   351.80         0.5318
   351.94         0.5365
   352.08         0.5409
   352.22         0.5450
   352.36         0.5494
   352.50         0.5555
   352.64         0.5651
   352.78         0.5799
   352.92         0.6012
   353.06         0.6295
   353.20         0.6641
   353.34         0.7032
   353.48         0.7444
   353.62         0.7848
   353.76         0.8218
   353.90         0.8538
   354.04         0.8802
   354.18         0.9006
   354.32         0.9152
   354.46         0.9236
   354.60         0.9265
   354.74         0.9254
   354.88         0.9220
   355.02         0.9175
   355.16         0.9126
   355.30         0.9072
   355.44         0.9010
   355.58         0.8932
   355.72         0.8829
   355.86         0.8688
   356.00         0.8501
   356.14         0.8263
   356.28         0.7979
   356.42         0.7659
   356.56         0.7313
   356.70         0.6955
   356.84         0.6595
   356.98         0.6242
   357.12         0.5908
   357.26         0.5609
   357.40         0.5361
   357.54         0.5169
   357.68         0.5029
   357.82         0.4936
   357.96         0.4891
   358.10         0.4894
   358.24         0.4943
   358.38         0.5039
   358.52         0.5185
   358.66         0.5379
   358.80         0.5618
   358.94         0.5894
   359.08         0.6191
   359.22         0.6496
   359.36         0.6791
   359.50         0.7057
   359.64         0.7274
   359.78         0.7431
   359.92         0.7527
   360.06         0.7564
   360.20         0.7561
   360.34         0.7548
   360.48         0.7563
   360.62         0.7636
   360.76         0.7783
   360.90         0.8008
   361.04         0.8314
   361.18         0.8694
   361.32         0.9135
   361.46         0.9623
   361.60         1.0138
   361.74         1.0657
   361.88         1.1151
   362.02         1.1591
   362.16         1.1948
   362.30         1.2203
   362.44         1.2356
   362.58         1.2415
   362.72         1.2405
   362.86         1.2361
   363.00         1.2305
   363.14         1.2244
   363.28         1.2177
   363.42         1.2099
   363.56         1.2019
   363.70         1.1947
   363.84         1.1890
   363.98         1.1855
   364.12         1.1840
   364.26         1.1845
   364.40         1.1875
   364.54         1.1943
   364.68         1.2066
   364.82         1.2261
   364.96         1.2546
   365.10         1.2927
   365.24         1.3397
   365.38         1.3935
   365.52         1.4508
   365.66         1.5075
   365.80         1.5591
   365.94         1.6017
   366.08         1.6330
   366.22         1.6532
   366.36         1.6643
   366.50         1.6698
   366.64         1.6730
   366.78         1.6764
   366.92         1.6813
   367.06         1.6884
   367.20         1.6970
   367.34         1.7055
   367.48         1.7117
   367.62         1.7129
   367.76         1.7065
   367.90         1.6912
   368.04         1.6680
   368.18         1.6389
   368.32         1.6064
   368.46         1.5735
   368.60         1.5447
   368.74         1.5259
   368.88         1.5224
   369.02         1.5375
   369.16         1.5705
   369.30         1.6166
   369.44         1.6686
   369.58         1.7190
   369.72         1.7608
   369.86         1.7884
   370.00         1.7994
   370.14         1.7943
   370.28         1.7765
   370.42         1.7515
   370.56         1.7254
   370.70         1.7034
   370.84         1.6874
   370.98         1.6762
   371.12         1.6678
   371.26         1.6603
   371.40         1.6521
   371.54         1.6417
   371.68         1.6270
   371.82         1.6060
   371.96         1.5776
   372.10         1.5419
   372.24         1.5006
   372.38         1.4558
   372.52         1.4103
   372.66         1.3664
   372.80         1.3260
   372.94         1.2898
   373.08         1.2582
   373.22         1.2308
   373.36         1.2061
   373.50         1.1823
   373.64         1.1594
   373.78         1.1387
   373.92         1.1231
   374.06         1.1155
   374.20         1.1179
   374.34         1.1319
   374.48         1.1584
   374.62         1.1970
   374.76         1.2459
   374.90         1.3034
   375.04         1.3681
   375.18         1.4387
   375.32         1.5133
   375.46         1.5893
   375.60         1.6635
   375.74         1.7330
   375.88         1.7951
   376.02         1.8498
   376.16         1.8995
   376.30         1.9482
   376.44         2.0000
   376.58         2.0577
   376.72         2.1225
   376.86         2.1937
   377.00         2.2691
   377.14         2.3455
   377.28         2.4183
   377.42         2.4836
   377.56         2.5367
   377.70         2.5729
   377.84         2.5879
   377.98         2.5799
   378.12         2.5495
   378.26         2.5001
   378.40         2.4364
   378.54         2.3638
   378.68         2.2875
   378.82         2.2120
   378.96         2.1420
   379.10         2.0831
   379.24         2.0408
   379.38         2.0194
   379.52         2.0200
   379.66         2.0407
   379.80         2.0770
   379.94         2.1237
   380.08         2.1751
   380.22         2.2254
   380.36         2.2689
   380.50         2.3012
   380.64         2.3187
   380.78         2.3189
   380.92         2.2997
   381.06         2.2602
   381.20         2.2011
   381.34         2.1248
   381.48         2.0358
   381.62         1.9401
   381.76         1.8444
   381.90         1.7547
   382.04         1.6757
   382.18         1.6113
   382.32         1.5645
   382.46         1.5381
   382.60         1.5334
   382.74         1.5483
   382.88         1.5780
   383.02         1.6164
   383.16         1.6588
   383.30         1.7021
   383.44         1.7446
   383.58         1.7853
   383.72         1.8235
   383.86         1.8585
   384.00         1.8897
   384.14         1.9177
   384.28         1.9438
   384.42         1.9682
   384.56         1.9889
   384.70         2.0023
   384.84         2.0050
   384.98         1.9948
   385.12         1.9720
   385.26         1.9388
   385.40         1.8987
   385.54         1.8569
   385.68         1.8206
   385.82         1.7972
   385.96         1.7921
   386.10         1.8065
   386.24         1.8377
   386.38         1.8803
   386.52         1.9282
   386.66         1.9754
   386.80         2.0173
   386.94         2.0503
   387.08         2.0726
   387.22         2.0839
   387.36         2.0852
   387.50         2.0784
   387.64         2.0660
   387.78         2.0523
   387.92         2.0422
   388.06         2.0407
   388.20         2.0519
   388.34         2.0779
   388.48         2.1176
   388.62         2.1675
   388.76         2.2234
   388.90         2.2814
   389.04         2.3382
   389.18         2.3915
   389.32         2.4397
   389.46         2.4819
   389.60         2.5171
   389.74         2.5446
   389.88         2.5649
   390.02         2.5794
   390.16         2.5903
   390.30         2.6016
   390.44         2.6168
   390.58         2.6372
   390.72         2.6613
   390.86         2.6844
   391.00         2.6996
   391.14         2.7003
   391.28         2.6817
   391.42         2.6403
   391.56         2.5747
   391.70         2.4856
   391.84         2.3750
   391.98         2.2456
   392.12         2.1010
   392.26         1.9455
   392.40         1.7851
   392.54         1.6264
   392.68         1.4759
   392.82         1.3397
   392.96         1.2229
   393.10         1.1291
   393.24         1.0601
   393.38         1.0166
   393.52         0.9988
   393.66         1.0064
   393.80         1.0398
   393.94         1.0988
   394.08         1.1826
   394.22         1.2889
   394.36         1.4136
   394.50         1.5500
   394.64         1.6896
   394.78         1.8229
   394.92         1.9405
   395.06         2.0341
   395.20         2.0966
   395.34         2.1225
   395.48         2.1083
   395.62         2.0534
   395.76         1.9610
   395.90         1.8389
   396.04         1.6992
   396.18         1.5571
   396.32         1.4288
   396.46         1.3303
   396.60         1.2744
   396.74         1.2690
   396.88         1.3161
   397.02         1.4121
   397.16         1.5500
   397.30         1.7211
   397.44         1.9171
   397.58         2.1299
   397.72         2.3510
   397.86         2.5719
   398.00         2.7855
   398.14         2.9867
   398.28         3.1730
   398.42         3.3435
   398.56         3.4989
   398.70         3.6405
   398.84         3.7700
   398.98         3.8909
   399.12         4.0067
   399.26         4.1189
   399.40         4.2267
   399.54         4.3275
   399.68         4.4192
   399.82         4.4999
   399.96         4.5688
   400.10         4.6261
   400.24         4.6742
   400.38         4.7173
   400.52         4.7610
   400.66         4.8099
   400.80         4.8662
   400.94         4.9280
   401.08         4.9904
   401.22         5.0481
   401.36         5.0976
   401.50         5.1386
   401.64         5.1720
   401.78         5.1961
   401.92         5.2053
   402.06         5.1933
   402.20         5.1568
   402.34         5.0985
   402.48         5.0281
   402.62         4.9607
   402.76         4.9128
   402.90         4.8974
   403.04         4.9199
   403.18         4.9769
   403.32         5.0579
   403.46         5.1490
   403.60         5.2375
   403.74         5.3161
   403.88         5.3824
   404.02         5.4376
   404.16         5.4827
   404.30         5.5163
   404.44         5.5356
   404.58         5.5403
   404.72         5.5348
   404.86         5.5273
   405.00         5.5268
   405.14         5.5374
   405.28         5.5569
   405.42         5.5788
   405.56         5.5951
   405.70         5.6008
   405.84         5.5949
   405.98         5.5803
   406.12         5.5637
   406.26         5.5537
   406.40         5.5549
   406.54         5.5660
   406.68         5.5816
   406.82         5.5958
   406.96         5.6052
   407.10         5.6097
   407.24         5.6113
   407.38         5.6132
   407.52         5.6191
   407.66         5.6337
   407.80         5.6624
   407.94         5.7092
   408.08         5.7764
   408.22         5.8630
   408.36         5.9637
   408.50         6.0686
   408.64         6.1653
   408.78         6.2415
   408.92         6.2861
   409.06         6.2916
   409.20         6.2573
   409.34         6.1912
   409.48         6.1066
   409.62         6.0175
   409.76         5.9345
   409.90         5.8637
   410.04         5.8082
   410.18         5.7692
   410.32         5.7461
   410.46         5.7357
   410.60         5.7329
   410.74         5.7330
   410.88         5.7319
   411.02         5.7255
   411.16         5.7116
   411.30         5.6904
   411.44         5.6646
   411.58         5.6374
   411.72         5.6115
   411.86         5.5879
   412.00         5.5657
   412.14         5.5414
   412.28         5.5102
   412.42         5.4677
   412.56         5.4132
   412.70         5.3502
   412.84         5.2853
   412.98         5.2245
   413.12         5.1711
   413.26         5.1273
   413.40         5.0954
   413.54         5.0781
   413.68         5.0773
   413.82         5.0936
   413.96         5.1258
   414.10         5.1703
   414.24         5.2230
   414.38         5.2804
   414.52         5.3416
   414.66         5.4077
   414.80         5.4816
   414.94         5.5664
   415.08         5.6644
   415.22         5.7758
   415.36         5.8979
   415.50         6.0242
   415.64         6.1455
   415.78         6.2534
   415.92         6.3405
   416.06         6.3993
   416.20         6.4207
   416.34         6.3959
   416.48         6.3204
   416.62         6.1959
   416.76         6.0305
   416.90         5.8374
   417.04         5.6325
   417.18         5.4324
   417.32         5.2520
   417.46         5.1031
   417.60         4.9928
   417.74         4.9232
   417.88         4.8926
   418.02         4.8964
   418.16         4.9290
   418.30         4.9836
   418.44         5.0518
   418.58         5.1230
   418.72         5.1866
   418.86         5.2345
   419.00         5.2632
   419.14         5.2726
   419.28         5.2651
   419.42         5.2440
   419.56         5.2136
   419.70         5.1780
   419.84         5.1407
   419.98         5.1040
   420.12         5.0684
   420.26         5.0323
   420.40         4.9923
   420.54         4.9447
   420.68         4.8851
   420.82         4.8095
   420.96         4.7136
   421.10         4.5931
   421.24         4.4449
   421.38         4.2673
   421.52         4.0609
   421.66         3.8293
   421.80         3.5802
   421.94         3.3251
   422.08         3.0775
   422.22         2.8506
   422.36         2.6558
   422.50         2.5032
   422.64         2.4010
   422.78         2.3551
   422.92         2.3693
   423.06         2.4453
   423.20         2.5829
   423.34         2.7790
   423.48         3.0258
   423.62         3.3097
   423.76         3.6132
   423.90         3.9170
   424.04         4.2023
   424.18         4.4523
   424.32         4.6541
   424.46         4.7998
   424.60         4.8864
   424.74         4.9151
   424.88         4.8909
   425.02         4.8241
   425.16         4.7299
   425.30         4.6263
   425.44         4.5304
   425.58         4.4567
   425.72         4.4148
   425.86         4.4077
   426.00         4.4300
   426.14         4.4697
   426.28         4.5111
   426.42         4.5391
   426.56         4.5427
   426.70         4.5171
   426.84         4.4638
   426.98         4.3898
   427.12         4.3049
   427.26         4.2194
   427.40         4.1424
   427.54         4.0811
   427.68         4.0397
   427.82         4.0176
   427.96         4.0096
   428.10         4.0092
   428.24         4.0113
   428.38         4.0122
   428.52         4.0093
   428.66         4.0007
   428.80         3.9858
   428.94         3.9663
   429.08         3.9455
   429.22         3.9282
   429.36         3.9178
   429.50         3.9146
   429.64         3.9154
   429.78         3.9171
   429.92         3.9180
   430.06         3.9186
   430.20         3.9193
   430.34         3.9203
   430.48         3.9231
   430.62         3.9310
   430.76         3.9475
   430.90         3.9742
   431.04         4.0094
   431.18         4.0493
   431.32         4.0895
   431.46         4.1265
   431.60         4.1602
   431.74         4.1945
   431.88         4.2351
   432.02         4.2863
   432.16         4.3504
   432.30         4.4301
   432.44         4.5276
   432.58         4.6425
   432.72         4.7690
   432.86         4.8969
   433.00         5.0155
   433.14         5.1166
   433.28         5.1948
   433.42         5.2476
   433.56         5.2756
   433.70         5.2816
   433.84         5.2702
   433.98         5.2452
   434.12         5.2098
   434.26         5.1672
   434.40         5.1201
   434.54         5.0694
   434.68         5.0152
   434.82         4.9578
   434.96         4.8984
   435.10         4.8380
   435.24         4.7781
   435.38         4.7217
   435.52         4.6737
   435.66         4.6403
   435.80         4.6264
   435.94         4.6347
   436.08         4.6648
   436.22         4.7129
   436.36         4.7728
   436.50         4.8370
   436.64         4.8993
   436.78         4.9570
   436.92         5.0091
   437.06         5.0553
   437.20         5.0933
   437.34         5.1198
   437.48         5.1325
   437.62         5.1316
   437.76         5.1185
   437.90         5.0950
   438.04         5.0637
   438.18         5.0274
   438.32         4.9885
   438.46         4.9490
   438.60         4.9108
   438.74         4.8749
   438.88         4.8417
   439.02         4.8116
   439.16         4.7842
   439.30         4.7576
   439.44         4.7272
   439.58         4.6878
   439.72         4.6371
   439.86         4.5781
   440.00         4.5193
   440.14         4.4719
   440.28         4.4456
   440.42         4.4457
   440.56         4.4743
   440.70         4.5305
   440.84         4.6103
   440.98         4.7052
   441.12         4.8028
   441.26         4.8892
   441.40         4.9513
   441.54         4.9776
   441.68         4.9601
   441.82         4.8951
   441.96         4.7844
   442.10         4.6358
   442.24         4.4618
   442.38         4.2767
   442.52         4.0942
   442.66         3.9255
   442.80         3.7786
   442.94         3.6583
   443.08         3.5662
   443.22         3.5024
   443.36         3.4656
   443.50         3.4529
   443.64         3.4610
   443.78         3.4863
   443.92         3.5269
   444.06         3.5809
   444.20         3.6457
   444.34         3.7168
   444.48         3.7896
   444.62         3.8594
   444.76         3.9212
   444.90         3.9685
   445.04         3.9945
   445.18         3.9943
   445.32         3.9656
   445.46         3.9079
   445.60         3.8230
   445.74         3.7154
   445.88         3.5924
   446.02         3.4632
   446.16         3.3374
   446.30         3.2243
   446.44         3.1315
   446.58         3.0654
   446.72         3.0302
   446.86         3.0270
   447.00         3.0539
   447.14         3.1068
   447.28         3.1802
   447.42         3.2668
   447.56         3.3594
   447.70         3.4515
   447.84         3.5380
   447.98         3.6159
   448.12         3.6845
   448.26         3.7443
   448.40         3.7960
   448.54         3.8409
   448.68         3.8812
   448.82         3.9193
   448.96         3.9569
   449.10         3.9945
   449.24         4.0314
   449.38         4.0651
   449.52         4.0913
   449.66         4.1059
   449.80         4.1065
   449.94         4.0931
   450.08         4.0664
   450.22         4.0279
   450.36         3.9797
   450.50         3.9255
   450.64         3.8707
   450.78         3.8208
   450.92         3.7812
   451.06         3.7563
   451.20         3.7493
   451.34         3.7610
   451.48         3.7891
   451.62         3.8287
   451.76         3.8738
   451.90         3.9186
   452.04         3.9584
   452.18         3.9902
   452.32         4.0131
   452.46         4.0279
   452.60         4.0383
   452.74         4.0491
   452.88         4.0654
   453.02         4.0908
   453.16         4.1273
   453.30         4.1751
   453.44         4.2317
   453.58         4.2916
   453.72         4.3470
   453.86         4.3897
   454.00         4.4135
   454.14         4.4142
   454.28         4.3910
   454.42         4.3477
   454.56         4.2918
   454.70         4.2325
   454.84         4.1795
   454.98         4.1416
   455.12         4.1266
   455.26         4.1397
   455.40         4.1827
   455.54         4.2542
   455.68         4.3509
   455.82         4.4679
   455.96         4.5982
   456.10         4.7346
   456.24         4.8701
   456.38         4.9989
   456.52         5.1171
   456.66         5.2218
   456.80         5.3099
   456.94         5.3782
   457.08         5.4237
   457.22         5.4412
   457.36         5.4226
   457.50         5.3595
   457.64         5.2463
   457.78         5.0824
   457.92         4.8718
   458.06         4.6234
   458.20         4.3492
   458.34         4.0626
   458.48         3.7777
   458.62         3.5084
   458.76         3.2676
   458.90         3.0661
   459.04         2.9115
   459.18         2.8074
   459.32         2.7527
   459.46         2.7423
   459.60         2.7695
   459.74         2.8272
   459.88         2.9082
   460.02         3.0069
   460.16         3.1203
   460.30         3.2473
   460.44         3.3858
   460.58         3.5333
   460.72         3.6865
   460.86         3.8416
   461.00         3.9935
   461.14         4.1355
   461.28         4.2601
   461.42         4.3598
   461.56         4.4267
   461.70         4.4543
   461.84         4.4381
   461.98         4.3774
   462.12         4.2754
   462.26         4.1384
   462.40         3.9756
   462.54         3.7972
   462.68         3.6138
   462.82         3.4354
   462.96         3.2718
   463.10         3.1308
   463.24         3.0182
   463.38         2.9365
   463.52         2.8852
   463.66         2.8613
   463.80         2.8601
   463.94         2.8767
   464.08         2.9064
   464.22         2.9457
   464.36         2.9923
   464.50         3.0453
   464.64         3.1048
   464.78         3.1709
   464.92         3.2447
   465.06         3.3270
   465.20         3.4184
   465.34         3.5182
   465.48         3.6231
   465.62         3.7273
   465.76         3.8228
   465.90         3.9013
   466.04         3.9557
   466.18         3.9813
   466.32         3.9763
   466.46         3.9420
   466.60         3.8826
   466.74         3.8046
   466.88         3.7156
   467.02         3.6235
   467.16         3.5367
   467.30         3.4633
   467.44         3.4103
   467.58         3.3826
   467.72         3.3829
   467.86         3.4110
   468.00         3.4641
   468.14         3.5372
   468.28         3.6253
   468.42         3.7244
   468.56         3.8310
   468.70         3.9414
   468.84         4.0518
   468.98         4.1592
   469.12         4.2616
   469.26         4.3580
   469.40         4.4472
   469.54         4.5275
   469.68         4.5979
   469.82         4.6586
   469.96         4.7106
   470.10         4.7548
   470.24         4.7912
   470.38         4.8186
   470.52         4.8357
   470.66         4.8419
   470.80         4.8378
   470.94         4.8250
   471.08         4.8058
   471.22         4.7827
   471.36         4.7595
   471.50         4.7404
   471.64         4.7297
   471.78         4.7303
   471.92         4.7431
   472.06         4.7671
   472.20         4.8010
   472.34         4.8437
   472.48         4.8938
   472.62         4.9484
   472.76         5.0032
   472.90         5.0544
   473.04         5.0997
   473.18         5.1390
   473.32         5.1738
   473.46         5.2066
   473.60         5.2416
   473.74         5.2842
   473.88         5.3407
   474.02         5.4171
   474.16         5.5174
   474.30         5.6430
   474.44         5.7925
   474.58         5.9603
   474.72         6.1352
   474.86         6.2995
   475.00         6.4310
   475.14         6.5050
   475.28         6.4998
   475.42         6.4008
   475.56         6.2024
   475.70         5.9089
   475.84         5.5337
   475.98         5.0984
   476.12         4.6299
   476.26         4.1584
   476.40         3.7137
   476.54         3.3223
   476.68         3.0041
   476.82         2.7702
   476.96         2.6222
   477.10         2.5530
   477.24         2.5477
   477.38         2.5871
   477.52         2.6520
   477.66         2.7267
   477.80         2.8006
   477.94         2.8681
   478.08         2.9284
   478.22         2.9837
   478.36         3.0377
   478.50         3.0935
   478.64         3.1541
   478.78         3.2229
   478.92         3.3029
   479.06         3.3951
   479.20         3.4956
   479.34         3.5961
   479.48         3.6855
   479.62         3.7532
   479.76         3.7907
   479.90         3.7929
   480.04         3.7584
   480.18         3.6899
   480.32         3.5938
   480.46         3.4791
   480.60         3.3567
   480.74         3.2381
   480.88         3.1336
   481.02         3.0506
   481.16         2.9945
   481.30         2.9681
   481.44         2.9715
   481.58         3.0008
   481.72         3.0485
   481.86         3.1054
   482.00         3.1644
   482.14         3.2224
   482.28         3.2795
   482.42         3.3386
   482.56         3.4034
   482.70         3.4772
   482.84         3.5613
   482.98         3.6546
   483.12         3.7537
   483.26         3.8543
   483.40         3.9516
   483.54         4.0400
   483.68         4.1137
   483.82         4.1668
   483.96         4.1954
   484.10         4.1978
   484.24         4.1749
   484.38         4.1301
   484.52         4.0692
   484.66         4.0000
   484.80         3.9301
   484.94         3.8653
   485.08         3.8097
   485.22         3.7652
   485.36         3.7326
   485.50         3.7122
   485.64         3.7046
   485.78         3.7106
   485.92         3.7299
   486.06         3.7615
   486.20         3.8032
   486.34         3.8527
   486.48         3.9096
   486.62         3.9744
   486.76         4.0474
   486.90         4.1280
   487.04         4.2156
   487.18         4.3094
   487.32         4.4080
   487.46         4.5099
   487.60         4.6146
   487.74         4.7230
   487.88         4.8360
   488.02         4.9532
   488.16         5.0737
   488.30         5.1953
   488.44         5.3155
   488.58         5.4320
   488.72         5.5430
   488.86         5.6474
   489.00         5.7453
   489.14         5.8379
   489.28         5.9265
   489.42         6.0132
   489.56         6.1018
   489.70         6.1955
   489.84         6.2955
   489.98         6.4017
   490.12         6.5139
   490.26         6.6316
   490.40         6.7540
   490.54         6.8799
   490.68         7.0074
   490.82         7.1335
   490.96         7.2557
   491.10         7.3722
   491.24         7.4828
   491.38         7.5889
   491.52         7.6947
   491.66         7.8073
   491.80         7.9348
   491.94         8.0847
   492.08         8.2618
   492.22         8.4654
   492.36         8.6907
   492.50         8.9317
   492.64         9.1825
   492.78         9.4349
   492.92         9.6804
   493.06         9.9123
   493.20         10.1260
   493.34         10.3203
   493.48         10.4989
   493.62         10.6694
   493.76         10.8414
   493.90         11.0243
   494.04         11.2255
   494.18         11.4416
   494.32         11.6503
   494.46         11.8108
   494.60         11.8732
   494.74         11.7915
   494.88         11.5327
   495.02         11.0822
   495.16         10.4443
   495.30         9.6401
   495.44         8.7068
   495.58         7.6948
   495.72         6.6627
   495.86         5.6696
   496.00         4.7689
   496.14         4.0026
   496.28         3.3974
   496.42         2.9626
   496.56         2.6904
   496.70         2.5555
   496.84         2.5191
   496.98         2.5399
   497.12         2.5854
   497.26         2.6374
   497.40         2.6885
   497.54         2.7371
   497.68         2.7837
   497.82         2.8298
   497.96         2.8777
   498.10         2.9293
   498.24         2.9858
   498.38         3.0481
   498.52         3.1161
   498.66         3.1891
   498.80         3.2640
   498.94         3.3355
   499.08         3.3972
   499.22         3.4428
   499.36         3.4671
   499.50         3.4665
   499.64         3.4405
   499.78         3.3916
   499.92         3.3255
   500.06         3.2491
   500.20         3.1692
   500.34         3.0919
   500.48         3.0220
   500.62         2.9639
   500.76         2.9208
   500.90         2.8954
   501.04         2.8892
   501.18         2.9020
   501.32         2.9316
   501.46         2.9744
   501.60         3.0273
   501.74         3.0888
   501.88         3.1591
   502.02         3.2395
   502.16         3.3308
   502.30         3.4337
   502.44         3.5481
   502.58         3.6724
   502.72         3.8040
   502.86         3.9399
   503.00         4.0774
   503.14         4.2150
   503.28         4.3530
   503.42         4.4930
   503.56         4.6370
   503.70         4.7854
   503.84         4.9368
   503.98         5.0883
   504.12         5.2358
   504.26         5.3750
   504.40         5.5031
   504.54         5.6198
   504.68         5.7255
   504.82         5.8217
   504.96         5.9103
   505.10         5.9940
   505.24         6.0762
   505.38         6.1598
   505.52         6.2471
   505.66         6.3395
   505.80         6.4385
   505.94         6.5459
   506.08         6.6617
   506.22         6.7837
   506.36         6.9095
   506.50         7.0383
   506.64         7.1702
   506.78         7.3052
   506.92         7.4413
   507.06         7.5754
   507.20         7.7050
   507.34         7.8281
   507.48         7.9439
   507.62         8.0534
   507.76         8.1585
   507.90         8.2606
   508.04         8.3621
   508.18         8.4672
   508.32         8.5814
   508.46         8.7087
   508.60         8.8495
   508.74         9.0001
   508.88         9.1545
   509.02         9.3062
   509.16         9.4484
   509.30         9.5744
   509.44         9.6788
   509.58         9.7594
   509.72         9.8186
   509.86         9.8614
   510.00         9.8931
   510.14         9.9192
   510.28         9.9469
   510.42         9.9850
   510.56         10.0444
   510.70         10.1360
   510.84         10.2678
   510.98         10.4417
   511.12         10.6532
   511.26         10.8930
   511.40         11.1488
   511.54         11.4071
   511.68         11.6547
   511.82         11.8813
   511.96         12.0829
   512.10         12.2609
   512.24         12.4195
   512.38         12.5634
   512.52         12.6975
   512.66         12.8256
   512.80         12.9494
   512.94         13.0688
   513.08         13.1811
   513.22         13.2800
   513.36         13.3563
   513.50         13.4016
   513.64         13.4115
   513.78         13.3862
   513.92         13.3306
   514.06         13.2525
   514.20         13.1631
   514.34         13.0793
   514.48         13.0232
   514.62         13.0167
   514.76         13.0740
   514.90         13.1998
   515.04         13.3911
   515.18         13.6384
   515.32         13.9209
   515.46         14.2014
   515.60         14.4264
   515.74         14.5341
   515.88         14.4667
   516.02         14.1822
   516.16         13.6602
   516.30         12.9027
   516.44         11.9335
   516.58         10.7964
   516.72         9.5524
   516.86         8.2747
   517.00         7.0402
   517.14         5.9184
   517.28         4.9614
   517.42         4.2009
   517.56         3.6481
   517.70         3.2945
   517.84         3.1125
   517.98         3.0597
   518.12         3.0879
   518.26         3.1568
   518.40         3.2417
   518.54         3.3324
   518.68         3.4267
   518.82         3.5249
   518.96         3.6271
   519.10         3.7327
   519.24         3.8388
   519.38         3.9409
   519.52         4.0346
   519.66         4.1162
   519.80         4.1840
   519.94         4.2384
   520.08         4.2828
   520.22         4.3223
   520.36         4.3623
   520.50         4.4076
   520.64         4.4628
   520.78         4.5310
   520.92         4.6147
   521.06         4.7154
   521.20         4.8324
   521.34         4.9613
   521.48         5.0946
   521.62         5.2254
   521.76         5.3492
   521.90         5.4647
   522.04         5.5732
   522.18         5.6791
   522.32         5.7874
   522.46         5.9027
   522.60         6.0288
   522.74         6.1659
   522.88         6.3095
   523.02         6.4511
   523.16         6.5820
   523.30         6.6943
   523.44         6.7806
   523.58         6.8352
   523.72         6.8549
   523.86         6.8397
   524.00         6.7935
   524.14         6.7250
   524.28         6.6476
   524.42         6.5755
   524.56         6.5227
   524.70         6.5018
   524.84         6.5204
   524.98         6.5796
   525.12         6.6735
   525.26         6.7904
   525.40         6.9145
   525.54         7.0299
   525.68         7.1242
   525.82         7.1885
   525.96         7.2183
   526.10         7.2152
   526.24         7.1869
   526.38         7.1460
   526.52         7.1074
   526.66         7.0854
   526.80         7.0923
   526.94         7.1360
   527.08         7.2196
   527.22         7.3413
   527.36         7.4948
   527.50         7.6705
   527.64         7.8576
   527.78         8.0477
   527.92         8.2355
   528.06         8.4196
   528.20         8.6004
   528.34         8.7788
   528.48         8.9542
   528.62         9.1241
   528.76         9.2853
   528.90         9.4345
   529.04         9.5693
   529.18         9.6905
   529.32         9.8010
   529.46         9.9037
   529.60         9.9991
   529.74         10.0849
   529.88         10.1572
   530.02         10.2124
   530.16         10.2465
   530.30         10.2568
   530.44         10.2426
   530.58         10.2055
   530.72         10.1478
   530.86         10.0725
   531.00         9.9839
   531.14         9.8881
   531.28         9.7938
   531.42         9.7106
   531.56         9.6448
   531.70         9.5969
   531.84         9.5644
   531.98         9.5432
   532.12         9.5283
   532.26         9.5163
   532.40         9.5075
   532.54         9.5059
   532.68         9.5160
   532.82         9.5411
   532.96         9.5835
   533.10         9.6444
   533.24         9.7232
   533.38         9.8178
   533.52         9.9242
   533.66         10.0374
   533.80         10.1534
   533.94         10.2709
   534.08         10.3908
   534.22         10.5163
   534.36         10.6525
   534.50         10.8031
   534.64         10.9656
   534.78         11.1303
   534.92         11.2829
   535.06         11.4089
   535.20         11.4942
   535.34         11.5274
   535.48         11.5021
   535.62         11.4179
   535.76         11.2801
   535.90         11.0989
   536.04         10.8883
   536.18         10.6662
   536.32         10.4537
   536.46         10.2727
   536.60         10.1413
   536.74         10.0715
   536.88         10.0673
   537.02         10.1256
   537.16         10.2375
   537.30         10.3903
   537.44         10.5709
   537.58         10.7668
   537.72         10.9649
   537.86         11.1509
   538.00         11.3108
   538.14         11.4340
   538.28         11.5144
   538.42         11.5491
   538.56         11.5398
   538.70         11.4953
   538.84         11.4320
   538.98         11.3689
   539.12         11.3231
   539.26         11.3070
   539.40         11.3257
   539.54         11.3765
   539.68         11.4505
   539.82         11.5341
   539.96         11.6135
   540.10         11.6782
   540.24         11.7221
   540.38         11.7421
   540.52         11.7399
   540.66         11.7228
   540.80         11.7027
   540.94         11.6930
   541.08         11.7061
   541.22         11.7518
   541.36         11.8358
   541.50         11.9570
   541.64         12.1057
   541.78         12.2660
   541.92         12.4196
   542.06         12.5493
   542.20         12.6415
   542.34         12.6895
   542.48         12.6954
   542.62         12.6698
   542.76         12.6290
   542.90         12.5927
   543.04         12.5812
   543.18         12.6122
   543.32         12.6959
   543.46         12.8275
   543.60         12.9840
   543.74         13.1263
   543.88         13.2086
   544.02         13.1890
   544.16         13.0348
   544.30         12.7250
   544.44         12.2540
   544.58         11.6334
   544.72         10.8913
   544.86         10.0694
   545.00         9.2197
   545.14         8.3975
   545.28         7.6540
   545.42         7.0300
   545.56         6.5510
   545.70         6.2243
   545.84         6.0388
   545.98         5.9682
   546.12         5.9774
   546.26         6.0319
   546.40         6.1054
   546.54         6.1831
   546.68         6.2584
   546.82         6.3293
   546.96         6.3960
   547.10         6.4606
   547.24         6.5265
   547.38         6.5977
   547.52         6.6780
   547.66         6.7699
   547.80         6.8742
   547.94         6.9898
   548.08         7.1142
   548.22         7.2442
   548.36         7.3765
   548.50         7.5068
   548.64         7.6288
   548.78         7.7348
   548.92         7.8161
   549.06         7.8658
   549.20         7.8797
   549.34         7.8566
   549.48         7.7991
   549.62         7.7128
   549.76         7.6075
   549.90         7.4950
   550.04         7.3874
   550.18         7.2948
   550.32         7.2254
   550.46         7.1856
   550.60         7.1802
   550.74         7.2121
   550.88         7.2817
   551.02         7.3857
   551.16         7.5168
   551.30         7.6651
   551.44         7.8208
   551.58         7.9757
   551.72         8.1232
   551.86         8.2581
   552.00         8.3772
   552.14         8.4786
   552.28         8.5621
   552.42         8.6286
   552.56         8.6810
   552.70         8.7243
   552.84         8.7649
   552.98         8.8104
   553.12         8.8684
   553.26         8.9455
   553.40         9.0448
   553.54         9.1661
   553.68         9.3058
   553.82         9.4585
   553.96         9.6174
   554.10         9.7750
   554.24         9.9239
   554.38         10.0580
   554.52         10.1728
   554.66         10.2647
   554.80         10.3317
   554.94         10.3742
   555.08         10.3953
   555.22         10.4001
   555.36         10.3934
   555.50         10.3800
   555.64         10.3631
   555.78         10.3441
   555.92         10.3222
   556.06         10.2946
   556.20         10.2581
   556.34         10.2097
   556.48         10.1476
   556.62         10.0716
   556.76         9.9842
   556.90         9.8902
   557.04         9.7953
   557.18         9.7049
   557.32         9.6244
   557.46         9.5592
   557.60         9.5133
   557.74         9.4878
   557.88         9.4804
   558.02         9.4864
   558.16         9.4987
   558.30         9.5087
   558.44         9.5087
   558.58         9.4922
   558.72         9.4532
   558.86         9.3854
   559.00         9.2853
   559.14         9.1529
   559.28         8.9919
   559.42         8.8080
   559.56         8.6077
   559.70         8.3994
   559.84         8.1927
   559.98         7.9984
   560.12         7.8265
   560.26         7.6845
   560.40         7.5755
   560.54         7.4981
   560.68         7.4476
   560.82         7.4175
   560.96         7.3999
   561.10         7.3857
   561.24         7.3657
   561.38         7.3327
   561.52         7.2839
   561.66         7.2217
   561.80         7.1517
   561.94         7.0791
   562.08         7.0091
   562.22         6.9469
   562.36         6.8986
   562.50         6.8688
   562.64         6.8603
   562.78         6.8729
   562.92         6.9031
   563.06         6.9454
   563.20         6.9947
   563.34         7.0469
   563.48         7.0992
   563.62         7.1504
   563.76         7.2003
   563.90         7.2507
   564.04         7.3046
   564.18         7.3655
   564.32         7.4364
   564.46         7.5204
   564.60         7.6190
   564.74         7.7329
   564.88         7.8608
   565.02         7.9995
   565.16         8.1434
   565.30         8.2841
   565.44         8.4119
   565.58         8.5181
   565.72         8.5961
   565.86         8.6412
   566.00         8.6507
   566.14         8.6254
   566.28         8.5701
   566.42         8.4927
   566.56         8.4034
   566.70         8.3140
   566.84         8.2361
   566.98         8.1793
   567.12         8.1508
   567.26         8.1545
   567.40         8.1922
   567.54         8.2622
   567.68         8.3592
   567.82         8.4749
   567.96         8.6002
   568.10         8.7278
   568.24         8.8521
   568.38         8.9682
   568.52         9.0731
   568.66         9.1664
   568.80         9.2508
   568.94         9.3298
   569.08         9.4065
   569.22         9.4833
   569.36         9.5623
   569.50         9.6457
   569.64         9.7355
   569.78         9.8329
   569.92         9.9383
   570.06         10.0510
   570.20         10.1677
   570.34         10.2832
   570.48         10.3925
   570.62         10.4916
   570.76         10.5754
   570.90         10.6383
   571.04         10.6770
   571.18         10.6925
   571.32         10.6888
   571.46         10.6720
   571.60         10.6483
   571.74         10.6237
   571.88         10.6043
   572.02         10.5970
   572.16         10.6079
   572.30         10.6414
   572.44         10.6977
   572.58         10.7731
   572.72         10.8593
   572.86         10.9461
   573.00         11.0245
   573.14         11.0878
   573.28         11.1314
   573.42         11.1538
   573.56         11.1578
   573.70         11.1506
   573.84         11.1416
   573.98         11.1407
   574.12         11.1558
   574.26         11.1927
   574.40         11.2552
   574.54         11.3458
   574.68         11.4630
   574.82         11.5984
   574.96         11.7365
   575.10         11.8577
   575.24         11.9427
   575.38         11.9774
   575.52         11.9552
   575.66         11.8767
   575.80         11.7481
   575.94         11.5813
   576.08         11.3914
   576.22         11.1954
   576.36         11.0107
   576.50         10.8522
   576.64         10.7302
   576.78         10.6504
   576.92         10.6145
   577.06         10.6216
   577.20         10.6668
   577.34         10.7422
   577.48         10.8383
   577.62         10.9474
   577.76         11.0647
   577.90         11.1877
   578.04         11.3159
   578.18         11.4507
   578.32         11.5941
   578.46         11.7480
   578.60         11.9133
   578.74         12.0899
   578.88         12.2779
   579.02         12.4775
   579.16         12.6886
   579.30         12.9096
   579.44         13.1376
   579.58         13.3678
   579.72         13.5934
   579.86         13.8039
   580.00         13.9847
   580.14         14.1201
   580.28         14.1951
   580.42         14.1978
   580.56         14.1213
   580.70         13.9658
   580.84         13.7377
   580.98         13.4502
   581.12         13.1206
   581.26         12.7700
   581.40         12.4218
   581.54         12.0996
   581.68         11.8235
   581.82         11.6090
   581.96         11.4650
   582.10         11.3937
   582.24         11.3907
   582.38         11.4461
   582.52         11.5443
   582.66         11.6670
   582.80         11.7956
   582.94         11.9138
   583.08         12.0095
   583.22         12.0744
   583.36         12.1032
   583.50         12.0917
   583.64         12.0347
   583.78         11.9256
   583.92         11.7591
   584.06         11.5328
   584.20         11.2485
   584.34         10.9124
   584.48         10.5363
   584.62         10.1355
   584.76         9.7275
   584.90         9.3299
   585.04         8.9580
   585.18         8.6234
   585.32         8.3345
   585.46         8.0980
   585.60         7.9186
   585.74         7.7971
   585.88         7.7276
   586.02         7.6970
   586.16         7.6884
   586.30         7.6849
   586.44         7.6733
   586.58         7.6452
   586.72         7.5977
   586.86         7.5318
   587.00         7.4514
   587.14         7.3623
   587.28         7.2706
   587.42         7.1814
   587.56         7.0977
   587.70         7.0188
   587.84         6.9415
   587.98         6.8651
   588.12         6.7918
   588.26         6.7228
   588.40         6.6554
   588.54         6.5850
   588.68         6.5086
   588.82         6.4264
   588.96         6.3412
   589.10         6.2569
   589.24         6.1784
   589.38         6.1107
   589.52         6.0567
   589.66         6.0176
   589.80         5.9927
   589.94         5.9803
   590.08         5.9768
   590.22         5.9782
   590.36         5.9825
   590.50         5.9919
   590.64         6.0116
   590.78         6.0439
   590.92         6.0869
   591.06         6.1366
   591.20         6.1908
   591.34         6.2477
   591.48         6.3052
   591.62         6.3613
   591.76         6.4144
   591.90         6.4633
   592.04         6.5078
   592.18         6.5488
   592.32         6.5891
   592.46         6.6331
   592.60         6.6850
   592.74         6.7482
   592.88         6.8249
   593.02         6.9162
   593.16         7.0216
   593.30         7.1390
   593.44         7.2647
   593.58         7.3929
   593.72         7.5164
   593.86         7.6285
   594.00         7.7241
   594.14         7.8011
   594.28         7.8585
   594.42         7.8949
   594.56         7.9094
   594.70         7.9035
   594.84         7.8809
   594.98         7.8471
   595.12         7.8079
   595.26         7.7687
   595.40         7.7347
   595.54         7.7111
   595.68         7.7025
   595.82         7.7128
   595.96         7.7438
   596.10         7.7936
   596.24         7.8582
   596.38         7.9341
   596.52         8.0180
   596.66         8.1066
   596.80         8.1960
   596.94         8.2828
   597.08         8.3653
   597.22         8.4447
   597.36         8.5238
   597.50         8.6064
   597.64         8.6957
   597.78         8.7942
   597.92         8.9041
   598.06         9.0273
   598.20         9.1649
   598.34         9.3175
   598.48         9.4845
   598.62         9.6626
   598.76         9.8443
   598.90         10.0213
   599.04         10.1851
   599.18         10.3278
   599.32         10.4431
   599.46         10.5267
   599.60         10.5767
   599.74         10.5940
   599.88         10.5829
   600.02         10.5508
   600.16         10.5071
   600.30         10.4609
   600.44         10.4216
   600.58         10.3977
   600.72         10.3967
   600.86         10.4233
   601.00         10.4786
   601.14         10.5595
   601.28         10.6593
   601.42         10.7702
   601.56         10.8862
   601.70         11.0035
   601.84         11.1199
   601.98         11.2335
   602.12         11.3436
   602.26         11.4500
   602.40         11.5521
   602.54         11.6469
   602.68         11.7314
   602.82         11.8046
   602.96         11.8677
   603.10         11.9244
   603.24         11.9807
   603.38         12.0423
   603.52         12.1138
   603.66         12.1985
   603.80         12.2971
   603.94         12.4089
   604.08         12.5315
   604.22         12.6618
   604.36         12.7958
   604.50         12.9291
   604.64         13.0570
   604.78         13.1749
   604.92         13.2788
   605.06         13.3655
   605.20         13.4346
   605.34         13.4899
   605.48         13.5372
   605.62         13.5825
   605.76         13.6306
   605.90         13.6845
   606.04         13.7448
   606.18         13.8103
   606.32         13.8790
   606.46         13.9480
   606.60         14.0134
   606.74         14.0705
   606.88         14.1142
   607.02         14.1407
   607.16         14.1474
   607.30         14.1339
   607.44         14.1010
   607.58         14.0520
   607.72         13.9933
   607.86         13.9343
   608.00         13.8861
   608.14         13.8597
   608.28         13.8631
   608.42         13.9008
   608.56         13.9745
   608.70         14.0819
   608.84         14.2175
   608.98         14.3721
   609.12         14.5349
   609.26         14.6970
   609.40         14.8533
   609.54         15.0019
   609.68         15.1425
   609.82         15.2751
   609.96         15.4007
   610.10         15.5210
   610.24         15.6378
   610.38         15.7515
   610.52         15.8600
   610.66         15.9594
   610.80         16.0456
   610.94         16.1158
   611.08         16.1696
   611.22         16.2101
   611.36         16.2430
   611.50         16.2769
   611.64         16.3209
   611.78         16.3843
   611.92         16.4729
   612.06         16.5867
   612.20         16.7210
   612.34         16.8699
   612.48         17.0288
   612.62         17.1958
   612.76         17.3689
   612.90         17.5463
   613.04         17.7280
   613.18         17.9156
   613.32         18.1092
   613.46         18.3021
   613.60         18.4770
   613.74         18.6089
   613.88         18.6710
   614.02         18.6412
   614.16         18.5034
   614.30         18.2472
   614.44         17.8697
   614.58         17.3750
   614.72         16.7725
   614.86         16.0781
   615.00         15.3135
   615.14         14.5049
   615.28         13.6799
   615.42         12.8642
   615.56         12.0812
   615.70         11.3502
   615.84         10.6845
   615.98         10.0903
   616.12         9.5692
   616.26         9.1214
   616.40         8.7497
   616.54         8.4589
   616.68         8.2511
   616.82         8.1222
   616.96         8.0616
   617.10         8.0535
   617.24         8.0793
   617.38         8.1198
   617.52         8.1589
   617.66         8.1851
   617.80         8.1904
   617.94         8.1698
   618.08         8.1204
   618.22         8.0428
   618.36         7.9407
   618.50         7.8212
   618.64         7.6932
   618.78         7.5667
   618.92         7.4530
   619.06         7.3636
   619.20         7.3085
   619.34         7.2943
   619.48         7.3224
   619.62         7.3893
   619.76         7.4871
   619.90         7.6055
   620.04         7.7332
   620.18         7.8593
   620.32         7.9736
   620.46         8.0668
   620.60         8.1322
   620.74         8.1675
   620.88         8.1746
   621.02         8.1575
   621.16         8.1191
   621.30         8.0611
   621.44         7.9856
   621.58         7.8955
   621.72         7.7957
   621.86         7.6923
   622.00         7.5915
   622.14         7.4986
   622.28         7.4178
   622.42         7.3526
   622.56         7.3051
   622.70         7.2766
   622.84         7.2681
   622.98         7.2804
   623.12         7.3143
   623.26         7.3704
   623.40         7.4472
   623.54         7.5401
   623.68         7.6425
   623.82         7.7480
   623.96         7.8528
   624.10         7.9562
   624.24         8.0604
   624.38         8.1681
   624.52         8.2816
   624.66         8.4025
   624.80         8.5324
   624.94         8.6735
   625.08         8.8260
   625.22         8.9854
   625.36         9.1456
   625.50         9.3010
   625.64         9.4476
   625.78         9.5821
   625.92         9.7025
   626.06         9.8085
   626.20         9.9015
   626.34         9.9838
   626.48         10.0567
   626.62         10.1201
   626.76         10.1745
   626.90         10.2219
   627.04         10.2658
   627.18         10.3105
   627.32         10.3606
   627.46         10.4207
   627.60         10.4941
   627.74         10.5823
   627.88         10.6866
   628.02         10.8087
   628.16         10.9499
   628.30         11.1079
   628.44         11.2769
   628.58         11.4486
   628.72         11.6138
   628.86         11.7648
   629.00         11.8960
   629.14         12.0060
   629.28         12.0977
   629.42         12.1789
   629.56         12.2595
   629.70         12.3489
   629.84         12.4548
   629.98         12.5833
   630.12         12.7381
   630.26         12.9197
   630.40         13.1263
   630.54         13.3533
   630.68         13.5951
   630.82         13.8448
   630.96         14.0924
   631.10         14.3246
   631.24         14.5289
   631.38         14.6970
   631.52         14.8259
   631.66         14.9169
   631.80         14.9731
   631.94         14.9990
   632.08         15.0013
   632.22         14.9903
   632.36         14.9790
   632.50         14.9801
   632.64         15.0051
   632.78         15.0626
   632.92         15.1589
   633.06         15.2973
   633.20         15.4777
   633.34         15.6973
   633.48         15.9492
   633.62         16.2224
   633.76         16.5050
   633.90         16.7842
   634.04         17.0455
   634.18         17.2728
   634.32         17.4506
   634.46         17.5657
   634.60         17.6080
   634.74         17.5729
   634.88         17.4631
   635.02         17.2880
   635.16         17.0626
   635.30         16.8069
   635.44         16.5440
   635.58         16.2982
   635.72         16.0918
   635.86         15.9434
   636.00         15.8661
   636.14         15.8651
   636.28         15.9379
   636.42         16.0772
   636.56         16.2728
   636.70         16.5136
   636.84         16.7882
   636.98         17.0843
   637.12         17.3873
   637.26         17.6805
   637.40         17.9484
   637.54         18.1801
   637.68         18.3692
   637.82         18.5132
   637.96         18.6144
   638.10         18.6802
   638.24         18.7226
   638.38         18.7561
   638.52         18.7953
   638.66         18.8537
   638.80         18.9427
   638.94         19.0721
   639.08         19.2493
   639.22         19.4769
   639.36         19.7517
   639.50         20.0648
   639.64         20.4046
   639.78         20.7572
   639.92         21.1091
   640.06         21.4480
   640.20         21.7625
   640.34         22.0393
   640.48         22.2635
   640.62         22.4216
   640.76         22.5028
   640.90         22.4984
   641.04         22.4032
   641.18         22.2179
   641.32         21.9524
   641.46         21.6253
   641.60         21.2610
   641.74         20.8868
   641.88         20.5295
   642.02         20.2144
   642.16         19.9625
   642.30         19.7891
   642.44         19.7027
   642.58         19.7049
   642.72         19.7901
   642.86         19.9467
   643.00         20.1615
   643.14         20.4229
   643.28         20.7199
   643.42         21.0400
   643.56         21.3686
   643.70         21.6906
   643.84         21.9923
   643.98         22.2636
   644.12         22.4977
   644.26         22.6917
   644.40         22.8466
   644.54         22.9675
   644.68         23.0634
   644.82         23.1454
   644.96         23.2249
   645.10         23.3133
   645.24         23.4221
   645.38         23.5620
   645.52         23.7420
   645.66         23.9690
   645.80         24.2465
   645.94         24.5719
   646.08         24.9365
   646.22         25.3269
   646.36         25.7264
   646.50         26.1169
   646.64         26.4781
   646.78         26.7860
   646.92         27.0163
   647.06         27.1478
   647.20         27.1666
   647.34         27.0672
   647.48         26.8538
   647.62         26.5411
   647.76         26.1560
   647.90         25.7334
   648.04         25.3092
   648.18         24.9158
   648.32         24.5803
   648.46         24.3226
   648.60         24.1544
   648.74         24.0817
   648.88         24.1052
   649.02         24.2198
   649.16         24.4149
   649.30         24.6781
   649.44         24.9969
   649.58         25.3598
   649.72         25.7575
   649.86         26.1816
   650.00         26.6205
   650.14         27.0584
   650.28         27.4780
   650.42         27.8622
   650.56         28.1976
   650.70         28.4765
   650.84         28.7001
   650.98         28.8785
   651.12         29.0273
   651.26         29.1663
   651.40         29.3166
   651.54         29.4985
   651.68         29.7281
   651.82         30.0159
   651.96         30.3641
   652.10         30.7652
   652.24         31.2049
   652.38         31.6671
   652.52         32.1345
   652.66         32.5889
   652.80         33.0167
   652.94         33.4113
   653.08         33.7682
   653.22         34.0791
   653.36         34.3320
   653.50         34.5135
   653.64         34.6101
   653.78         34.6079
   653.92         34.4964
   654.06         34.2708
   654.20         33.9340
   654.34         33.4979
   654.48         32.9832
   654.62         32.4184
   654.76         31.8371
   654.90         31.2730
   655.04         30.7517
   655.18         30.2851
   655.32         29.8734
   655.46         29.5083
   655.60         29.1732
   655.74         28.8466
   655.88         28.5085
   656.02         28.1462
   656.16         27.7561
   656.30         27.3435
   656.44         26.9220
   656.58         26.5101
   656.72         26.1282
   656.86         25.7956
   657.00         25.5282
   657.14         25.3366
   657.28         25.2248
   657.42         25.1902
   657.56         25.2251
   657.70         25.3182
   657.84         25.4564
   657.98         25.6240
   658.12         25.8012
   658.26         25.9666
   658.40         26.1007
   658.54         26.1879
   658.68         26.2174
   658.82         26.1860
   658.96         26.0982
   659.10         25.9619
   659.24         25.7874
   659.38         25.5894
   659.52         25.3865
   659.66         25.1976
   659.80         25.0377
   659.94         24.9171
   660.08         24.8417
   660.22         24.8106
   660.36         24.8147
   660.50         24.8388
   660.64         24.8665
   660.78         24.8843
   660.92         24.8841
   661.06         24.8600
   661.20         24.8058
   661.34         24.7154
   661.48         24.5858
   661.62         24.4177
   661.76         24.2162
   661.90         23.9905
   662.04         23.7522
   662.18         23.5111
   662.32         23.2738
   662.46         23.0450
   662.60         22.8285
   662.74         22.6263
   662.88         22.4384
   663.02         22.2644
   663.16         22.1052
   663.30         21.9620
   663.44         21.8344
   663.58         21.7166
   663.72         21.5958
   663.86         21.4523
   664.00         21.2658
   664.14         21.0219
   664.28         20.7137
   664.42         20.3398
   664.56         19.9028
   664.70         19.4107
   664.84         18.8778
   664.98         18.3278
   665.12         17.7920
   665.26         17.3047
   665.40         16.8975
   665.54         16.5947
   665.68         16.4097
   665.82         16.3435
   665.96         16.3852
   666.10         16.5146
   666.24         16.7053
   666.38         16.9285
   666.52         17.1574
   666.66         17.3693
   666.80         17.5439
   666.94         17.6607
   667.08         17.7011
   667.22         17.6536
   667.36         17.5150
   667.50         17.2913
   667.64         16.9962
   667.78         16.6494
   667.92         16.2733
   668.06         15.8925
   668.20         15.5308
   668.34         15.2098
   668.48         14.9477
   668.62         14.7588
   668.76         14.6512
   668.90         14.6258
   669.04         14.6762
   669.18         14.7899
   669.32         14.9504
   669.46         15.1417
   669.60         15.3509
   669.74         15.5689
   669.88         15.7869
   670.02         15.9931
   670.16         16.1707
   670.30         16.2998
   670.44         16.3613
   670.58         16.3416
   670.72         16.2354
   670.86         16.0452
   671.00         15.7809
   671.14         15.4592
   671.28         15.1024
   671.42         14.7357
   671.56         14.3847
   671.70         14.0726
   671.84         13.8175
   671.98         13.6318
   672.12         13.5222
   672.26         13.4886
   672.40         13.5240
   672.54         13.6163
   672.68         13.7504
   672.82         13.9121
   672.96         14.0923
   673.10         14.2865
   673.24         14.4915
   673.38         14.7020
   673.52         14.9092
   673.66         15.1043
   673.80         15.2807
   673.94         15.4344
   674.08         15.5630
   674.22         15.6658
   674.36         15.7437
   674.50         15.8007
   674.64         15.8434
   674.78         15.8809
   674.92         15.9222
   675.06         15.9764
   675.20         16.0511
   675.34         16.1517
   675.48         16.2812
   675.62         16.4413
   675.76         16.6308
   675.90         16.8461
   676.04         17.0821
   676.18         17.3345
   676.32         17.6005
   676.46         17.8776
   676.60         18.1612
   676.74         18.4434
   676.88         18.7115
   677.02         18.9474
   677.16         19.1299
   677.30         19.2411
   677.44         19.2699
   677.58         19.2141
   677.72         19.0797
   677.86         18.8793
   678.00         18.6308
   678.14         18.3576
   678.28         18.0858
   678.42         17.8410
   678.56         17.6457
   678.70         17.5183
   678.84         17.4709
   678.98         17.5082
   679.12         17.6283
   679.26         17.8219
   679.40         18.0735
   679.54         18.3649
   679.68         18.6791
   679.82         19.0044
   679.96         19.3349
   680.10         19.6659
   680.24         19.9906
   680.38         20.2988
   680.52         20.5800
   680.66         20.8274
   680.80         21.0388
   680.94         21.2152
   681.08         21.3595
   681.22         21.4768
   681.36         21.5747
   681.50         21.6629
   681.64         21.7526
   681.78         21.8544
   681.92         21.9759
   682.06         22.1225
   682.20         22.2977
   682.34         22.5024
   682.48         22.7349
   682.62         22.9915
   682.76         23.2660
   682.90         23.5513
   683.04         23.8427
   683.18         24.1397
   683.32         24.4436
   683.46         24.7541
   683.60         25.0673
   683.74         25.3744
   683.88         25.6613
   684.02         25.9123
   684.16         26.1136
   684.30         26.2553
   684.44         26.3321
   684.58         26.3428
   684.72         26.2932
   684.86         26.1967
   685.00         26.0722
   685.14         25.9400
   685.28         25.8179
   685.42         25.7155
   685.56         25.6294
   685.70         25.5444
   685.84         25.4406
   685.98         25.3002
   686.12         25.1127
   686.26         24.8775
   686.40         24.6055
   686.54         24.3202
   686.68         24.0563
   686.82         23.8561
   686.96         23.7609
   687.10         23.8014
   687.24         23.9925
   687.38         24.3328
   687.52         24.8042
   687.66         25.3744
   687.80         25.9997
   687.94         26.6322
   688.08         27.2263
   688.22         27.7477
   688.36         28.1831
   688.50         28.5395
   688.64         28.8385
   688.78         29.1076
   688.92         29.3730
   689.06         29.6572
   689.20         29.9778
   689.34         30.3482
   689.48         30.7790
   689.62         31.2716
   689.76         31.8171
   689.90         32.4022
   690.04         33.0165
   690.18         33.6534
   690.32         34.3071
   690.46         34.9707
   690.60         35.6320
   690.74         36.2709
   690.88         36.8619
   691.02         37.3806
   691.16         37.8056
   691.30         38.1221
   691.44         38.3241
   691.58         38.4158
   691.72         38.4111
   691.86         38.3329
   692.00         38.2116
   692.14         38.0804
   692.28         37.9699
   692.42         37.9095
   692.56         37.9263
   692.70         38.0384
   692.84         38.2504
   692.98         38.5570
   693.12         38.9465
   693.26         39.4024
   693.40         39.9087
   693.54         40.4553
   693.68         41.0376
   693.82         41.6529
   693.96         42.2968
   694.10         42.9570
   694.24         43.6149
   694.38         44.2515
   694.52         44.8523
   694.66         45.4074
   694.80         45.9104
   694.94         46.3616
   695.08         46.7716
   695.22         47.1583
   695.36         47.5460
   695.50         47.9655
   695.64         48.4522
   695.78         49.0355
   695.92         49.7293
   696.06         50.5294
   696.20         51.4193
   696.34         52.3762
   696.48         53.3731
   696.62         54.3776
   696.76         55.3570
   696.90         56.2882
   697.04         57.1601
   697.18         57.9688
   697.32         58.7162
   697.46         59.4094
   697.60         60.0538
   697.74         60.6410
   697.88         61.1496
   698.02         61.5547
   698.16         61.8362
   698.30         61.9815
   698.44         61.9892
   698.58         61.8712
   698.72         61.6533
   698.86         61.3737
   699.00         61.0764
   699.14         60.7994
   699.28         60.5666
   699.42         60.3927
   699.56         60.2906
   699.70         60.2705
   699.84         60.3374
   699.98         60.4875
   700.12         60.7075
   700.26         60.9783
   700.40         61.2806
   700.54         61.6057
   700.68         61.9581
   700.82         62.3462
   700.96         62.7728
   701.10         63.2276
   701.24         63.6874
   701.38         64.1221
   701.52         64.5022
   701.66         64.8027
   701.80         65.0080
   701.94         65.1204
   702.08         65.1629
   702.22         65.1712
   702.36         65.1755
   702.50         65.1920
   702.64         65.2231
   702.78         65.2603
   702.92         65.2903
   703.06         65.3028
   703.20         65.2964
   703.34         65.2755
   703.48         65.2430
   703.62         65.1963
   703.76         65.1337
   703.90         65.0603
   704.04         64.9761
   704.18         64.8554
   704.32         64.6280
   704.46         64.1782
   704.60         63.3730
   704.74         62.0943
   704.88         60.2591
   705.02         57.8309
   705.16         54.8308
   705.30         51.3413
   705.44         47.4981
   705.58         43.4806
   705.72         39.4913
   705.86         35.7265
   706.00         32.3552
   706.14         29.5044
   706.28         27.2503
   706.42         25.6148
   706.56         24.5620
   706.70         24.0010
   706.84         23.8059
   706.98         23.8474
   707.12         24.0251
   707.26         24.2840
   707.40         24.5964
   707.54         24.9364
   707.68         25.2676
   707.82         25.5439
   707.96         25.7208
   708.10         25.7626
   708.24         25.6458
   708.38         25.3588
   708.52         24.9033
   708.66         24.2976
   708.80         23.5753
   708.94         22.7815
   709.08         21.9675
   709.22         21.1868
   709.36         20.4913
   709.50         19.9249
   709.64         19.5182
   709.78         19.2846
   709.92         19.2188
   710.06         19.2981
   710.20         19.4866
   710.34         19.7449
   710.48         20.0429
   710.62         20.3648
   710.76         20.7021
   710.90         21.0490
   711.04         21.4022
   711.18         21.7598
   711.32         22.1148
   711.46         22.4472
   711.60         22.7240
   711.74         22.9095
   711.88         22.9770
   712.02         22.9097
   712.16         22.6993
   712.30         22.3477
   712.44         21.8693
   712.58         21.2912
   712.72         20.6510
   712.86         19.9929
   713.00         19.3621
   713.14         18.8005
   713.28         18.3409
   713.42         18.0035
   713.56         17.7955
   713.70         17.7102
   713.84         17.7270
   713.98         17.8161
   714.12         17.9477
   714.26         18.1030
   714.40         18.2776
   714.54         18.4739
   714.68         18.6926
   714.82         18.9306
   714.96         19.1839
   715.10         19.4488
   715.24         19.7206
   715.38         19.9916
   715.52         20.2497
   715.66         20.4809
   715.80         20.6749
   715.94         20.8256
   716.08         20.9326
   716.22         20.9993
   716.36         21.0307
   716.50         21.0345
   716.64         21.0212
   716.78         21.0045
   716.92         21.0011
   717.06         21.0270
   717.20         21.0922
   717.34         21.1982
   717.48         21.3386
   717.62         21.5028
   717.76         21.6824
   717.90         21.8734
   718.04         22.0736
   718.18         22.2792
   718.32         22.4872
   718.46         22.6972
   718.60         22.9088
   718.74         23.1156
   718.88         23.3040
   719.02         23.4605
   719.16         23.5775
   719.30         23.6556
   719.44         23.7001
   719.58         23.7167
   719.72         23.7100
   719.86         23.6873
   720.00         23.6620
   720.14         23.6557
   720.28         23.6972
   720.42         23.8146
   720.56         24.0257
   720.70         24.3330
   720.84         24.7301
   720.98         25.2092
   721.12         25.7600
   721.26         26.3641
   721.40         26.9952
   721.54         27.6291
   721.68         28.2495
   721.82         28.8457
   721.96         29.4083
   722.10         29.9248
   722.24         30.3784
   722.38         30.7532
   722.52         31.0406
   722.66         31.2428
   722.80         31.3734
   722.94         31.4500
   723.08         31.4870
   723.22         31.4989
   723.36         31.5048
   723.50         31.5292
   723.64         31.6001
   723.78         31.7437
   723.92         31.9812
   724.06         32.3241
   724.20         32.7692
   724.34         33.2970
   724.48         33.8806
   724.62         34.4977
   724.76         35.1278
   724.90         35.7540
   725.04         36.3714
   725.18         36.9861
   725.32         37.6066
   725.46         38.2346
   725.60         38.8632
   725.74         39.4865
   725.88         40.1079
   726.02         40.7315
   726.16         41.3469
   726.30         41.9284
   726.44         42.4454
   726.58         42.8669
   726.72         43.1612
   726.86         43.3076
   727.00         43.3161
   727.14         43.2290
   727.28         43.1007
   727.42         42.9817
   727.56         42.9192
   727.70         42.9547
   727.84         43.1156
   727.98         43.4126
   728.12         43.8402
   728.26         44.3794
   728.40         44.9993
   728.54         45.6614
   728.68         46.3272
   728.82         46.9705
   728.96         47.5871
   729.10         48.1886
   729.24         48.7874
   729.38         49.3939
   729.52         50.0237
   729.66         50.7016
   729.80         51.4489
   729.94         52.2748
   730.08         53.1790
   730.22         54.1516
   730.36         55.1746
   730.50         56.2267
   730.64         57.2877
   730.78         58.3399
   730.92         59.3691
   731.06         60.3727
   731.20         61.3628
   731.34         62.3549
   731.48         63.3550
   731.62         64.3595
   731.76         65.3615
   731.90         66.3616
   732.04         67.3716
   732.18         68.4037
   732.32         69.4582
   732.46         70.5220
   732.60         71.5762
   732.74         72.6114
   732.88         73.6331
   733.02         74.6553
   733.16         75.6958
   733.30         76.7691
   733.44         77.8708
   733.58         78.9696
   733.72         80.0228
   733.86         80.9893
   734.00         81.8326
   734.14         82.5256
   734.28         83.0588
   734.42         83.4431
   734.56         83.7051
   734.70         83.8763
   734.84         83.9841
   734.98         84.0613
   735.12         84.1592
   735.26         84.3376
   735.40         84.6458
   735.54         85.1082
   735.68         85.7242
   735.82         86.4810
   735.96         87.3586
   736.10         88.3329
   736.24         89.3890
   736.38         90.5261
   736.52         91.7403
   736.66         93.0102
   736.80         94.3001
   736.94         95.5765
   737.08         96.8158
   737.22         98.0027
   737.36         99.1284
   737.50         100.1874
   737.64         101.1825
   737.78         102.1231
   737.92         103.0183
   738.06         103.8778
   738.20         104.7091
   738.34         105.5175
   738.48         106.3070
   738.62         107.0742
   738.76         107.8055
   738.90         108.4820
   739.04         109.0880
   739.18         109.6272
   739.32         110.1263
   739.46         110.6189
   739.60         111.1285
   739.74         111.6619
   739.88         112.2160
   740.02         112.7827
   740.16         113.3509
   740.30         113.9133
   740.44         114.4649
   740.58         114.9962
   740.72         115.4868
   740.86         115.9084
   741.00         116.2428
   741.14         116.4846
   741.28         116.6377
   741.42         116.7205
   741.56         116.7725
   741.70         116.8432
   741.84         116.9666
   741.98         117.1441
   742.12         117.3503
   742.26         117.5538
   742.40         117.7332
   742.54         117.8753
   742.68         117.9719
   742.82         118.0198
   742.96         118.0198
   743.10         117.9719
   743.24         117.8753
   743.38         117.7332
   743.52         117.5538
   743.66         117.3503
   743.80         117.1441
   743.94         116.9666
   744.08         116.8432
   744.22         116.7725
