# File BD+302347
# Wavelength [nm]    Normalized Amplitude
   349.70         1.0284
   349.84         1.0233
   349.98         1.0240
   350.12         1.0301
   350.26         1.0403
   350.40         1.0525
   350.54         1.0651
   350.68         1.0765
   350.82         1.0854
   350.96         1.0911
   351.10         1.0930
   351.24         1.0911
   351.38         1.0854
   351.52         1.0765
   351.66         1.0651
   351.80         1.0525
   351.94         1.0403
   352.08         1.0301
   352.22         1.0240
   352.36         1.0233
   352.50         1.0284
   352.64         1.0390
   352.78         1.0542
   352.92         1.0726
   353.06         1.0930
   353.20         1.1141
   353.34         1.1344
   353.48         1.1524
   353.62         1.1667
   353.76         1.1765
   353.90         1.1820
   354.04         1.1839
   354.18         1.1834
   354.32         1.1812
   354.46         1.1782
   354.60         1.1751
   354.74         1.1723
   354.88         1.1703
   355.02         1.1692
   355.16         1.1695
   355.30         1.1707
   355.44         1.1716
   355.58         1.1704
   355.72         1.1656
   355.86         1.1561
   356.00         1.1406
   356.14         1.1192
   356.28         1.0927
   356.42         1.0628
   356.56         1.0316
   356.70         1.0017
   356.84         0.9748
   356.98         0.9526
   357.12         0.9362
   357.26         0.9253
   357.40         0.9187
   357.54         0.9147
   357.68         0.9118
   357.82         0.9084
   357.96         0.9034
   358.10         0.8967
   358.24         0.8898
   358.38         0.8847
   358.52         0.8838
   358.66         0.8894
   358.80         0.9035
   358.94         0.9271
   359.08         0.9595
   359.22         0.9982
   359.36         1.0398
   359.50         1.0803
   359.64         1.1158
   359.78         1.1433
   359.92         1.1605
   360.06         1.1669
   360.20         1.1630
   360.34         1.1513
   360.48         1.1351
   360.62         1.1177
   360.76         1.1012
   360.90         1.0864
   361.04         1.0738
   361.18         1.0638
   361.32         1.0567
   361.46         1.0526
   361.60         1.0517
   361.74         1.0539
   361.88         1.0590
   362.02         1.0664
   362.16         1.0749
   362.30         1.0837
   362.44         1.0919
   362.58         1.0992
   362.72         1.1052
   362.86         1.1099
   363.00         1.1134
   363.14         1.1156
   363.28         1.1160
   363.42         1.1143
   363.56         1.1112
   363.70         1.1082
   363.84         1.1063
   363.98         1.1057
   364.12         1.1070
   364.26         1.1104
   364.40         1.1158
   364.54         1.1232
   364.68         1.1325
   364.82         1.1441
   364.96         1.1584
   365.10         1.1758
   365.24         1.1959
   365.38         1.2176
   365.52         1.2397
   365.66         1.2610
   365.80         1.2798
   365.94         1.2947
   366.08         1.3049
   366.22         1.3102
   366.36         1.3109
   366.50         1.3083
   366.64         1.3038
   366.78         1.2989
   366.92         1.2946
   367.06         1.2912
   367.20         1.2883
   367.34         1.2854
   367.48         1.2822
   367.62         1.2781
   367.76         1.2723
   367.90         1.2644
   368.04         1.2553
   368.18         1.2467
   368.32         1.2394
   368.46         1.2342
   368.60         1.2318
   368.74         1.2331
   368.88         1.2383
   369.02         1.2468
   369.16         1.2575
   369.30         1.2690
   369.44         1.2798
   369.58         1.2884
   369.72         1.2937
   369.86         1.2950
   370.00         1.2924
   370.14         1.2866
   370.28         1.2788
   370.42         1.2708
   370.56         1.2646
   370.70         1.2613
   370.84         1.2610
   370.98         1.2625
   371.12         1.2646
   371.26         1.2659
   371.40         1.2656
   371.54         1.2632
   371.68         1.2589
   371.82         1.2530
   371.96         1.2460
   372.10         1.2380
   372.24         1.2289
   372.38         1.2185
   372.52         1.2065
   372.66         1.1928
   372.80         1.1773
   372.94         1.1604
   373.08         1.1425
   373.22         1.1246
   373.36         1.1073
   373.50         1.0910
   373.64         1.0760
   373.78         1.0629
   373.92         1.0523
   374.06         1.0450
   374.20         1.0418
   374.34         1.0428
   374.48         1.0481
   374.62         1.0574
   374.76         1.0696
   374.90         1.0835
   375.04         1.0980
   375.18         1.1126
   375.32         1.1272
   375.46         1.1418
   375.60         1.1561
   375.74         1.1696
   375.88         1.1813
   376.02         1.1901
   376.16         1.1957
   376.30         1.1988
   376.44         1.2011
   376.58         1.2048
   376.72         1.2120
   376.86         1.2244
   377.00         1.2429
   377.14         1.2670
   377.28         1.2956
   377.42         1.3268
   377.56         1.3590
   377.70         1.3905
   377.84         1.4194
   377.98         1.4435
   378.12         1.4607
   378.26         1.4699
   378.40         1.4702
   378.54         1.4617
   378.68         1.4453
   378.82         1.4220
   378.96         1.3936
   379.10         1.3623
   379.24         1.3309
   379.38         1.3030
   379.52         1.2822
   379.66         1.2709
   379.80         1.2705
   379.94         1.2817
   380.08         1.3030
   380.22         1.3322
   380.36         1.3658
   380.50         1.3995
   380.64         1.4297
   380.78         1.4531
   380.92         1.4673
   381.06         1.4703
   381.20         1.4615
   381.34         1.4415
   381.48         1.4116
   381.62         1.3743
   381.76         1.3324
   381.90         1.2883
   382.04         1.2443
   382.18         1.2017
   382.32         1.1614
   382.46         1.1239
   382.60         1.0895
   382.74         1.0583
   382.88         1.0306
   383.02         1.0068
   383.16         0.9880
   383.30         0.9756
   383.44         0.9708
   383.58         0.9745
   383.72         0.9868
   383.86         1.0071
   384.00         1.0345
   384.14         1.0671
   384.28         1.1031
   384.42         1.1403
   384.56         1.1765
   384.70         1.2096
   384.84         1.2372
   384.98         1.2578
   385.12         1.2706
   385.26         1.2764
   385.40         1.2769
   385.54         1.2743
   385.68         1.2709
   385.82         1.2683
   385.96         1.2678
   386.10         1.2694
   386.24         1.2731
   386.38         1.2787
   386.52         1.2863
   386.66         1.2958
   386.80         1.3062
   386.94         1.3158
   387.08         1.3226
   387.22         1.3256
   387.36         1.3242
   387.50         1.3185
   387.64         1.3087
   387.78         1.2956
   387.92         1.2800
   388.06         1.2633
   388.20         1.2467
   388.34         1.2319
   388.48         1.2204
   388.62         1.2145
   388.76         1.2163
   388.90         1.2273
   389.04         1.2480
   389.18         1.2775
   389.32         1.3131
   389.46         1.3515
   389.60         1.3895
   389.74         1.4246
   389.88         1.4554
   390.02         1.4810
   390.16         1.5014
   390.30         1.5170
   390.44         1.5291
   390.58         1.5389
   390.72         1.5478
   390.86         1.5561
   391.00         1.5636
   391.14         1.5696
   391.28         1.5735
   391.42         1.5740
   391.56         1.5689
   391.70         1.5559
   391.84         1.5325
   391.98         1.4969
   392.12         1.4478
   392.26         1.3854
   392.40         1.3114
   392.54         1.2286
   392.68         1.1411
   392.82         1.0542
   392.96         0.9732
   393.10         0.9034
   393.24         0.8496
   393.38         0.8154
   393.52         0.8034
   393.66         0.8144
   393.80         0.8479
   393.94         0.9012
   394.08         0.9698
   394.22         1.0478
   394.36         1.1295
   394.50         1.2095
   394.64         1.2832
   394.78         1.3472
   394.92         1.3990
   395.06         1.4373
   395.20         1.4610
   395.34         1.4696
   395.48         1.4625
   395.62         1.4391
   395.76         1.3995
   395.90         1.3448
   396.04         1.2778
   396.18         1.2030
   396.32         1.1257
   396.46         1.0520
   396.60         0.9882
   396.74         0.9402
   396.88         0.9129
   397.02         0.9095
   397.16         0.9307
   397.30         0.9754
   397.44         1.0397
   397.58         1.1184
   397.72         1.2056
   397.86         1.2955
   398.00         1.3830
   398.14         1.4640
   398.28         1.5359
   398.42         1.5979
   398.56         1.6500
   398.70         1.6932
   398.84         1.7292
   398.98         1.7596
   399.12         1.7858
   399.26         1.8095
   399.40         1.8312
   399.54         1.8508
   399.68         1.8677
   399.82         1.8817
   399.96         1.8931
   400.10         1.9023
   400.24         1.9102
   400.38         1.9176
   400.52         1.9251
   400.66         1.9327
   400.80         1.9404
   400.94         1.9481
   401.08         1.9561
   401.22         1.9642
   401.36         1.9724
   401.50         1.9810
   401.64         1.9900
   401.78         1.9990
   401.92         2.0070
   402.06         2.0127
   402.20         2.0149
   402.34         2.0133
   402.48         2.0085
   402.62         2.0013
   402.76         1.9927
   402.90         1.9833
   403.04         1.9740
   403.18         1.9652
   403.32         1.9573
   403.46         1.9504
   403.60         1.9442
   403.74         1.9389
   403.88         1.9346
   404.02         1.9314
   404.16         1.9293
   404.30         1.9279
   404.44         1.9267
   404.58         1.9249
   404.72         1.9223
   404.86         1.9191
   405.00         1.9155
   405.14         1.9116
   405.28         1.9066
   405.42         1.9002
   405.56         1.8920
   405.70         1.8822
   405.84         1.8714
   405.98         1.8602
   406.12         1.8496
   406.26         1.8407
   406.40         1.8345
   406.54         1.8307
   406.68         1.8283
   406.82         1.8261
   406.96         1.8238
   407.10         1.8214
   407.24         1.8194
   407.38         1.8180
   407.52         1.8179
   407.66         1.8199
   407.80         1.8247
   407.94         1.8332
   408.08         1.8459
   408.22         1.8623
   408.36         1.8811
   408.50         1.9001
   408.64         1.9167
   408.78         1.9278
   408.92         1.9305
   409.06         1.9225
   409.20         1.9024
   409.34         1.8714
   409.48         1.8325
   409.62         1.7900
   409.76         1.7480
   409.90         1.7104
   410.04         1.6805
   410.18         1.6613
   410.32         1.6545
   410.46         1.6610
   410.60         1.6799
   410.74         1.7088
   410.88         1.7442
   411.02         1.7826
   411.16         1.8205
   411.30         1.8550
   411.44         1.8841
   411.58         1.9068
   411.72         1.9234
   411.86         1.9350
   412.00         1.9424
   412.14         1.9464
   412.28         1.9473
   412.42         1.9457
   412.56         1.9425
   412.70         1.9393
   412.84         1.9377
   412.98         1.9387
   413.12         1.9424
   413.26         1.9480
   413.40         1.9547
   413.54         1.9621
   413.68         1.9697
   413.82         1.9770
   413.96         1.9833
   414.10         1.9879
   414.24         1.9903
   414.38         1.9900
   414.52         1.9868
   414.66         1.9813
   414.80         1.9745
   414.94         1.9675
   415.08         1.9615
   415.22         1.9574
   415.36         1.9556
   415.50         1.9558
   415.64         1.9576
   415.78         1.9607
   415.92         1.9648
   416.06         1.9697
   416.20         1.9744
   416.34         1.9774
   416.48         1.9774
   416.62         1.9737
   416.76         1.9659
   416.90         1.9541
   417.04         1.9394
   417.18         1.9228
   417.32         1.9057
   417.46         1.8893
   417.60         1.8745
   417.74         1.8622
   417.88         1.8527
   418.02         1.8463
   418.16         1.8432
   418.30         1.8431
   418.44         1.8453
   418.58         1.8487
   418.72         1.8517
   418.86         1.8533
   419.00         1.8531
   419.14         1.8512
   419.28         1.8484
   419.42         1.8455
   419.56         1.8434
   419.70         1.8428
   419.84         1.8445
   419.98         1.8488
   420.12         1.8563
   420.26         1.8670
   420.40         1.8804
   420.54         1.8960
   420.68         1.9125
   420.82         1.9291
   420.96         1.9443
   421.10         1.9570
   421.24         1.9660
   421.38         1.9703
   421.52         1.9694
   421.66         1.9629
   421.80         1.9511
   421.94         1.9354
   422.08         1.9175
   422.22         1.8996
   422.36         1.8833
   422.50         1.8698
   422.64         1.8597
   422.78         1.8529
   422.92         1.8491
   423.06         1.8480
   423.20         1.8494
   423.34         1.8532
   423.48         1.8588
   423.62         1.8655
   423.76         1.8719
   423.90         1.8769
   424.04         1.8798
   424.18         1.8808
   424.32         1.8808
   424.46         1.8810
   424.60         1.8824
   424.74         1.8846
   424.88         1.8869
   425.02         1.8881
   425.16         1.8872
   425.30         1.8841
   425.44         1.8795
   425.58         1.8746
   425.72         1.8703
   425.86         1.8670
   426.00         1.8643
   426.14         1.8614
   426.28         1.8575
   426.42         1.8519
   426.56         1.8445
   426.70         1.8362
   426.84         1.8278
   426.98         1.8199
   427.12         1.8129
   427.26         1.8069
   427.40         1.8022
   427.54         1.7990
   427.68         1.7977
   427.82         1.7983
   427.96         1.8003
   428.10         1.8029
   428.24         1.8048
   428.38         1.8050
   428.52         1.8023
   428.66         1.7959
   428.80         1.7853
   428.94         1.7702
   429.08         1.7508
   429.22         1.7276
   429.36         1.7012
   429.50         1.6719
   429.64         1.6400
   429.78         1.6063
   429.92         1.5717
   430.06         1.5374
   430.20         1.5051
   430.34         1.4768
   430.48         1.4550
   430.62         1.4428
   430.76         1.4431
   430.90         1.4578
   431.04         1.4871
   431.18         1.5294
   431.32         1.5812
   431.46         1.6383
   431.60         1.6963
   431.74         1.7518
   431.88         1.8021
   432.02         1.8452
   432.16         1.8797
   432.30         1.9051
   432.44         1.9216
   432.58         1.9299
   432.72         1.9307
   432.86         1.9247
   433.00         1.9122
   433.14         1.8936
   433.28         1.8699
   433.42         1.8423
   433.56         1.8123
   433.70         1.7817
   433.84         1.7526
   433.98         1.7276
   434.12         1.7090
   434.26         1.6990
   434.40         1.6991
   434.54         1.7097
   434.68         1.7297
   434.82         1.7567
   434.96         1.7882
   435.10         1.8214
   435.24         1.8539
   435.38         1.8838
   435.52         1.9101
   435.66         1.9332
   435.80         1.9538
   435.94         1.9726
   436.08         1.9898
   436.22         2.0048
   436.36         2.0169
   436.50         2.0251
   436.64         2.0288
   436.78         2.0281
   436.92         2.0236
   437.06         2.0159
   437.20         2.0054
   437.34         1.9917
   437.48         1.9752
   437.62         1.9566
   437.76         1.9374
   437.90         1.9187
   438.04         1.9015
   438.18         1.8866
   438.32         1.8748
   438.46         1.8664
   438.60         1.8621
   438.74         1.8623
   438.88         1.8669
   439.02         1.8757
   439.16         1.8876
   439.30         1.9015
   439.44         1.9158
   439.58         1.9288
   439.72         1.9389
   439.86         1.9456
   440.00         1.9497
   440.14         1.9528
   440.28         1.9568
   440.42         1.9627
   440.56         1.9705
   440.70         1.9800
   440.84         1.9911
   440.98         2.0036
   441.12         2.0176
   441.26         2.0329
   441.40         2.0492
   441.54         2.0659
   441.68         2.0826
   441.82         2.0987
   441.96         2.1137
   442.10         2.1269
   442.24         2.1380
   442.38         2.1466
   442.52         2.1525
   442.66         2.1558
   442.80         2.1566
   442.94         2.1550
   443.08         2.1508
   443.22         2.1443
   443.36         2.1366
   443.50         2.1292
   443.64         2.1234
   443.78         2.1200
   443.92         2.1191
   444.06         2.1207
   444.20         2.1238
   444.34         2.1272
   444.48         2.1291
   444.62         2.1278
   444.76         2.1227
   444.90         2.1135
   445.04         2.1004
   445.18         2.0844
   445.32         2.0672
   445.46         2.0504
   445.60         2.0351
   445.74         2.0222
   445.88         2.0128
   446.02         2.0076
   446.16         2.0074
   446.30         2.0121
   446.44         2.0213
   446.58         2.0339
   446.72         2.0485
   446.86         2.0633
   447.00         2.0763
   447.14         2.0863
   447.28         2.0933
   447.42         2.0977
   447.56         2.1002
   447.70         2.1019
   447.84         2.1035
   447.98         2.1056
   448.12         2.1082
   448.26         2.1114
   448.40         2.1147
   448.54         2.1182
   448.68         2.1222
   448.82         2.1269
   448.96         2.1319
   449.10         2.1367
   449.24         2.1410
   449.38         2.1451
   449.52         2.1493
   449.66         2.1544
   449.80         2.1610
   449.94         2.1701
   450.08         2.1818
   450.22         2.1952
   450.36         2.2090
   450.50         2.2217
   450.64         2.2321
   450.78         2.2392
   450.92         2.2427
   451.06         2.2424
   451.20         2.2388
   451.34         2.2318
   451.48         2.2214
   451.62         2.2075
   451.76         2.1907
   451.90         2.1717
   452.04         2.1513
   452.18         2.1302
   452.32         2.1090
   452.46         2.0888
   452.60         2.0706
   452.74         2.0554
   452.88         2.0441
   453.02         2.0374
   453.16         2.0360
   453.30         2.0402
   453.44         2.0498
   453.58         2.0638
   453.72         2.0802
   453.86         2.0970
   454.00         2.1120
   454.14         2.1240
   454.28         2.1323
   454.42         2.1373
   454.56         2.1394
   454.70         2.1396
   454.84         2.1385
   454.98         2.1374
   455.12         2.1375
   455.26         2.1394
   455.40         2.1431
   455.54         2.1482
   455.68         2.1547
   455.82         2.1618
   455.96         2.1690
   456.10         2.1756
   456.24         2.1812
   456.38         2.1860
   456.52         2.1905
   456.66         2.1950
   456.80         2.1998
   456.94         2.2045
   457.08         2.2083
   457.22         2.2105
   457.36         2.2103
   457.50         2.2076
   457.64         2.2023
   457.78         2.1945
   457.92         2.1848
   458.06         2.1738
   458.20         2.1621
   458.34         2.1509
   458.48         2.1412
   458.62         2.1339
   458.76         2.1301
   458.90         2.1296
   459.04         2.1319
   459.18         2.1360
   459.32         2.1406
   459.46         2.1447
   459.60         2.1476
   459.74         2.1494
   459.88         2.1502
   460.02         2.1505
   460.16         2.1504
   460.30         2.1505
   460.44         2.1511
   460.58         2.1523
   460.72         2.1545
   460.86         2.1581
   461.00         2.1638
   461.14         2.1717
   461.28         2.1818
   461.42         2.1933
   461.56         2.2052
   461.70         2.2165
   461.84         2.2264
   461.98         2.2341
   462.12         2.2390
   462.26         2.2406
   462.40         2.2392
   462.54         2.2350
   462.68         2.2284
   462.82         2.2201
   462.96         2.2106
   463.10         2.2006
   463.24         2.1909
   463.38         2.1820
   463.52         2.1739
   463.66         2.1660
   463.80         2.1578
   463.94         2.1492
   464.08         2.1402
   464.22         2.1312
   464.36         2.1226
   464.50         2.1148
   464.64         2.1086
   464.78         2.1048
   464.92         2.1040
   465.06         2.1063
   465.20         2.1112
   465.34         2.1177
   465.48         2.1245
   465.62         2.1303
   465.76         2.1337
   465.90         2.1339
   466.04         2.1306
   466.18         2.1239
   466.32         2.1149
   466.46         2.1053
   466.60         2.0967
   466.74         2.0902
   466.88         2.0864
   467.02         2.0853
   467.16         2.0873
   467.30         2.0927
   467.44         2.1013
   467.58         2.1122
   467.72         2.1238
   467.86         2.1350
   468.00         2.1448
   468.14         2.1527
   468.28         2.1582
   468.42         2.1618
   468.56         2.1640
   468.70         2.1647
   468.84         2.1637
   468.98         2.1604
   469.12         2.1545
   469.26         2.1456
   469.40         2.1338
   469.54         2.1198
   469.68         2.1045
   469.82         2.0891
   469.96         2.0747
   470.10         2.0624
   470.24         2.0527
   470.38         2.0466
   470.52         2.0445
   470.66         2.0465
   470.80         2.0525
   470.94         2.0620
   471.08         2.0745
   471.22         2.0889
   471.36         2.1045
   471.50         2.1204
   471.64         2.1359
   471.78         2.1506
   471.92         2.1642
   472.06         2.1768
   472.20         2.1881
   472.34         2.1979
   472.48         2.2059
   472.62         2.2121
   472.76         2.2161
   472.90         2.2177
   473.04         2.2171
   473.18         2.2147
   473.32         2.2109
   473.46         2.2063
   473.60         2.2017
   473.74         2.1975
   473.88         2.1939
   474.02         2.1909
   474.16         2.1887
   474.30         2.1871
   474.44         2.1859
   474.58         2.1843
   474.72         2.1821
   474.86         2.1788
   475.00         2.1744
   475.14         2.1689
   475.28         2.1620
   475.42         2.1537
   475.56         2.1442
   475.70         2.1337
   475.84         2.1225
   475.98         2.1110
   476.12         2.1002
   476.26         2.0909
   476.40         2.0842
   476.54         2.0807
   476.68         2.0811
   476.82         2.0855
   476.96         2.0935
   477.10         2.1039
   477.24         2.1159
   477.38         2.1286
   477.52         2.1414
   477.66         2.1527
   477.80         2.1615
   477.94         2.1671
   478.08         2.1692
   478.22         2.1682
   478.36         2.1648
   478.50         2.1600
   478.64         2.1551
   478.78         2.1508
   478.92         2.1476
   479.06         2.1455
   479.20         2.1441
   479.34         2.1432
   479.48         2.1422
   479.62         2.1407
   479.76         2.1382
   479.90         2.1346
   480.04         2.1297
   480.18         2.1235
   480.32         2.1161
   480.46         2.1083
   480.60         2.1010
   480.74         2.0955
   480.88         2.0928
   481.02         2.0937
   481.16         2.0986
   481.30         2.1067
   481.44         2.1166
   481.58         2.1268
   481.72         2.1363
   481.86         2.1448
   482.00         2.1515
   482.14         2.1558
   482.28         2.1575
   482.42         2.1569
   482.56         2.1542
   482.70         2.1496
   482.84         2.1434
   482.98         2.1358
   483.12         2.1271
   483.26         2.1178
   483.40         2.1081
   483.54         2.0982
   483.68         2.0882
   483.82         2.0778
   483.96         2.0670
   484.10         2.0557
   484.24         2.0442
   484.38         2.0326
   484.52         2.0199
   484.66         2.0049
   484.80         1.9854
   484.94         1.9598
   485.08         1.9271
   485.22         1.8877
   485.36         1.8437
   485.50         1.7979
   485.64         1.7540
   485.78         1.7152
   485.92         1.6840
   486.06         1.6625
   486.20         1.6522
   486.34         1.6530
   486.48         1.6639
   486.62         1.6831
   486.76         1.7085
   486.90         1.7382
   487.04         1.7698
   487.18         1.8006
   487.32         1.8281
   487.46         1.8510
   487.60         1.8692
   487.74         1.8836
   487.88         1.8954
   488.02         1.9054
   488.16         1.9145
   488.30         1.9235
   488.44         1.9337
   488.58         1.9461
   488.72         1.9613
   488.86         1.9793
   489.00         1.9994
   489.14         2.0203
   489.28         2.0412
   489.42         2.0610
   489.56         2.0786
   489.70         2.0922
   489.84         2.1008
   489.98         2.1039
   490.12         2.1016
   490.26         2.0951
   490.40         2.0853
   490.54         2.0738
   490.68         2.0615
   490.82         2.0489
   490.96         2.0364
   491.10         2.0237
   491.24         2.0109
   491.38         1.9981
   491.52         1.9861
   491.66         1.9759
   491.80         1.9688
   491.94         1.9656
   492.08         1.9667
   492.22         1.9717
   492.36         1.9797
   492.50         1.9897
   492.64         2.0008
   492.78         2.0119
   492.92         2.0220
   493.06         2.0303
   493.20         2.0367
   493.34         2.0414
   493.48         2.0449
   493.62         2.0480
   493.76         2.0513
   493.90         2.0554
   494.04         2.0601
   494.18         2.0653
   494.32         2.0703
   494.46         2.0741
   494.60         2.0754
   494.74         2.0732
   494.88         2.0671
   495.02         2.0578
   495.16         2.0461
   495.30         2.0334
   495.44         2.0210
   495.58         2.0103
   495.72         2.0026
   495.86         1.9984
   496.00         1.9976
   496.14         1.9995
   496.28         2.0036
   496.42         2.0095
   496.56         2.0168
   496.70         2.0246
   496.84         2.0323
   496.98         2.0390
   497.12         2.0436
   497.26         2.0451
   497.40         2.0432
   497.54         2.0382
   497.68         2.0307
   497.82         2.0215
   497.96         2.0115
   498.10         2.0020
   498.24         1.9942
   498.38         1.9888
   498.52         1.9860
   498.66         1.9860
   498.80         1.9886
   498.94         1.9930
   499.08         1.9982
   499.22         2.0025
   499.36         2.0045
   499.50         2.0027
   499.64         1.9965
   499.78         1.9864
   499.92         1.9734
   500.06         1.9590
   500.20         1.9443
   500.34         1.9299
   500.48         1.9164
   500.62         1.9042
   500.76         1.8934
   500.90         1.8844
   501.04         1.8769
   501.18         1.8713
   501.32         1.8677
   501.46         1.8664
   501.60         1.8674
   501.74         1.8708
   501.88         1.8765
   502.02         1.8849
   502.16         1.8963
   502.30         1.9108
   502.44         1.9276
   502.58         1.9453
   502.72         1.9620
   502.86         1.9760
   503.00         1.9860
   503.14         1.9908
   503.28         1.9905
   503.42         1.9858
   503.56         1.9782
   503.70         1.9689
   503.84         1.9592
   503.98         1.9507
   504.12         1.9444
   504.26         1.9410
   504.40         1.9407
   504.54         1.9436
   504.68         1.9495
   504.82         1.9576
   504.96         1.9673
   505.10         1.9776
   505.24         1.9878
   505.38         1.9973
   505.52         2.0055
   505.66         2.0120
   505.80         2.0172
   505.94         2.0212
   506.08         2.0242
   506.22         2.0257
   506.36         2.0252
   506.50         2.0225
   506.64         2.0178
   506.78         2.0110
   506.92         2.0024
   507.06         1.9921
   507.20         1.9807
   507.34         1.9689
   507.48         1.9575
   507.62         1.9471
   507.76         1.9387
   507.90         1.9329
   508.04         1.9300
   508.18         1.9301
   508.32         1.9334
   508.46         1.9396
   508.60         1.9480
   508.74         1.9575
   508.88         1.9668
   509.02         1.9750
   509.16         1.9820
   509.30         1.9873
   509.44         1.9908
   509.58         1.9921
   509.72         1.9912
   509.86         1.9885
   510.00         1.9843
   510.14         1.9796
   510.28         1.9752
   510.42         1.9717
   510.56         1.9697
   510.70         1.9693
   510.84         1.9707
   510.98         1.9735
   511.12         1.9774
   511.26         1.9816
   511.40         1.9851
   511.54         1.9874
   511.68         1.9879
   511.82         1.9862
   511.96         1.9820
   512.10         1.9752
   512.24         1.9661
   512.38         1.9555
   512.52         1.9443
   512.66         1.9335
   512.80         1.9236
   512.94         1.9148
   513.08         1.9072
   513.22         1.9008
   513.36         1.8957
   513.50         1.8918
   513.64         1.8893
   513.78         1.8878
   513.92         1.8874
   514.06         1.8880
   514.20         1.8895
   514.34         1.8917
   514.48         1.8946
   514.62         1.8978
   514.76         1.9010
   514.90         1.9035
   515.04         1.9047
   515.18         1.9044
   515.32         1.9018
   515.46         1.8965
   515.60         1.8877
   515.74         1.8748
   515.88         1.8578
   516.02         1.8369
   516.16         1.8126
   516.30         1.7861
   516.44         1.7595
   516.58         1.7356
   516.72         1.7166
   516.86         1.7045
   517.00         1.7000
   517.14         1.7026
   517.28         1.7104
   517.42         1.7215
   517.56         1.7339
   517.70         1.7461
   517.84         1.7567
   517.98         1.7643
   518.12         1.7685
   518.26         1.7696
   518.40         1.7686
   518.54         1.7670
   518.68         1.7665
   518.82         1.7684
   518.96         1.7739
   519.10         1.7834
   519.24         1.7960
   519.38         1.8102
   519.52         1.8239
   519.66         1.8357
   519.80         1.8447
   519.94         1.8519
   520.08         1.8586
   520.22         1.8658
   520.36         1.8735
   520.50         1.8815
   520.64         1.8894
   520.78         1.8971
   520.92         1.9047
   521.06         1.9124
   521.20         1.9195
   521.34         1.9253
   521.48         1.9286
   521.62         1.9286
   521.76         1.9248
   521.90         1.9173
   522.04         1.9069
   522.18         1.8945
   522.32         1.8814
   522.46         1.8690
   522.60         1.8590
   522.74         1.8523
   522.88         1.8496
   523.02         1.8510
   523.16         1.8566
   523.30         1.8662
   523.44         1.8791
   523.58         1.8940
   523.72         1.9089
   523.86         1.9218
   524.00         1.9316
   524.14         1.9379
   524.28         1.9411
   524.42         1.9414
   524.56         1.9395
   524.70         1.9360
   524.84         1.9316
   524.98         1.9267
   525.12         1.9213
   525.26         1.9149
   525.40         1.9067
   525.54         1.8956
   525.68         1.8812
   525.82         1.8631
   525.96         1.8417
   526.10         1.8177
   526.24         1.7926
   526.38         1.7683
   526.52         1.7472
   526.66         1.7314
   526.80         1.7228
   526.94         1.7222
   527.08         1.7296
   527.22         1.7441
   527.36         1.7643
   527.50         1.7881
   527.64         1.8134
   527.78         1.8384
   527.92         1.8619
   528.06         1.8831
   528.20         1.9016
   528.34         1.9171
   528.48         1.9291
   528.62         1.9372
   528.76         1.9415
   528.90         1.9426
   529.04         1.9413
   529.18         1.9384
   529.32         1.9346
   529.46         1.9309
   529.60         1.9278
   529.74         1.9261
   529.88         1.9261
   530.02         1.9286
   530.16         1.9336
   530.30         1.9409
   530.44         1.9496
   530.58         1.9588
   530.72         1.9672
   530.86         1.9739
   531.00         1.9779
   531.14         1.9792
   531.28         1.9780
   531.42         1.9746
   531.56         1.9691
   531.70         1.9611
   531.84         1.9504
   531.98         1.9373
   532.12         1.9226
   532.26         1.9070
   532.40         1.8914
   532.54         1.8768
   532.68         1.8641
   532.82         1.8540
   532.96         1.8471
   533.10         1.8437
   533.24         1.8442
   533.38         1.8486
   533.52         1.8565
   533.66         1.8674
   533.80         1.8800
   533.94         1.8933
   534.08         1.9062
   534.22         1.9183
   534.36         1.9295
   534.50         1.9405
   534.64         1.9514
   534.78         1.9619
   534.92         1.9715
   535.06         1.9795
   535.20         1.9853
   535.34         1.9882
   535.48         1.9878
   535.62         1.9839
   535.76         1.9764
   535.90         1.9654
   536.04         1.9512
   536.18         1.9347
   536.32         1.9172
   536.46         1.9001
   536.60         1.8849
   536.74         1.8730
   536.88         1.8650
   537.02         1.8611
   537.16         1.8611
   537.30         1.8642
   537.44         1.8696
   537.58         1.8767
   537.72         1.8846
   537.86         1.8923
   538.00         1.8991
   538.14         1.9042
   538.28         1.9074
   538.42         1.9085
   538.56         1.9078
   538.70         1.9058
   538.84         1.9032
   538.98         1.9004
   539.12         1.8974
   539.26         1.8939
   539.40         1.8895
   539.54         1.8841
   539.68         1.8774
   539.82         1.8695
   539.96         1.8609
   540.10         1.8524
   540.24         1.8444
   540.38         1.8371
   540.52         1.8306
   540.66         1.8252
   540.80         1.8211
   540.94         1.8188
   541.08         1.8183
   541.22         1.8197
   541.36         1.8229
   541.50         1.8278
   541.64         1.8339
   541.78         1.8408
   541.92         1.8478
   542.06         1.8546
   542.20         1.8610
   542.34         1.8668
   542.48         1.8721
   542.62         1.8768
   542.76         1.8811
   542.90         1.8850
   543.04         1.8885
   543.18         1.8918
   543.32         1.8948
   543.46         1.8970
   543.60         1.8979
   543.74         1.8975
   543.88         1.8963
   544.02         1.8948
   544.16         1.8933
   544.30         1.8917
   544.44         1.8897
   544.58         1.8874
   544.72         1.8851
   544.86         1.8831
   545.00         1.8817
   545.14         1.8811
   545.28         1.8815
   545.42         1.8827
   545.56         1.8842
   545.70         1.8855
   545.84         1.8862
   545.98         1.8862
   546.12         1.8855
   546.26         1.8844
   546.40         1.8829
   546.54         1.8807
   546.68         1.8771
   546.82         1.8716
   546.96         1.8642
   547.10         1.8552
   547.24         1.8455
   547.38         1.8362
   547.52         1.8280
   547.66         1.8216
   547.80         1.8175
   547.94         1.8156
   548.08         1.8161
   548.22         1.8186
   548.36         1.8227
   548.50         1.8280
   548.64         1.8337
   548.78         1.8391
   548.92         1.8436
   549.06         1.8468
   549.20         1.8484
   549.34         1.8484
   549.48         1.8471
   549.62         1.8444
   549.76         1.8410
   549.90         1.8371
   550.04         1.8330
   550.18         1.8288
   550.32         1.8248
   550.46         1.8213
   550.60         1.8187
   550.74         1.8172
   550.88         1.8174
   551.02         1.8191
   551.16         1.8222
   551.30         1.8261
   551.44         1.8299
   551.58         1.8330
   551.72         1.8347
   551.86         1.8346
   552.00         1.8329
   552.14         1.8301
   552.28         1.8267
   552.42         1.8236
   552.56         1.8211
   552.70         1.8196
   552.84         1.8195
   552.98         1.8209
   553.12         1.8240
   553.26         1.8284
   553.40         1.8336
   553.54         1.8390
   553.68         1.8442
   553.82         1.8489
   553.96         1.8533
   554.10         1.8575
   554.24         1.8615
   554.38         1.8653
   554.52         1.8689
   554.66         1.8721
   554.80         1.8743
   554.94         1.8750
   555.08         1.8739
   555.22         1.8709
   555.36         1.8659
   555.50         1.8594
   555.64         1.8520
   555.78         1.8444
   555.92         1.8370
   556.06         1.8305
   556.20         1.8253
   556.34         1.8218
   556.48         1.8201
   556.62         1.8202
   556.76         1.8219
   556.90         1.8249
   557.04         1.8290
   557.18         1.8335
   557.32         1.8380
   557.46         1.8418
   557.60         1.8445
   557.74         1.8454
   557.88         1.8440
   558.02         1.8403
   558.16         1.8346
   558.30         1.8274
   558.44         1.8193
   558.58         1.8108
   558.72         1.8027
   558.86         1.7955
   559.00         1.7896
   559.14         1.7857
   559.28         1.7840
   559.42         1.7843
   559.56         1.7863
   559.70         1.7899
   559.84         1.7948
   559.98         1.8006
   560.12         1.8072
   560.26         1.8138
   560.40         1.8197
   560.54         1.8242
   560.68         1.8270
   560.82         1.8278
   560.96         1.8265
   561.10         1.8234
   561.24         1.8190
   561.38         1.8136
   561.52         1.8078
   561.66         1.8022
   561.80         1.7979
   561.94         1.7956
   562.08         1.7961
   562.22         1.7994
   562.36         1.8052
   562.50         1.8127
   562.64         1.8210
   562.78         1.8290
   562.92         1.8359
   563.06         1.8411
   563.20         1.8444
   563.34         1.8462
   563.48         1.8469
   563.62         1.8465
   563.76         1.8451
   563.90         1.8424
   564.04         1.8386
   564.18         1.8338
   564.32         1.8285
   564.46         1.8229
   564.60         1.8172
   564.74         1.8109
   564.88         1.8038
   565.02         1.7961
   565.16         1.7883
   565.30         1.7810
   565.44         1.7745
   565.58         1.7693
   565.72         1.7658
   565.86         1.7643
   566.00         1.7649
   566.14         1.7675
   566.28         1.7714
   566.42         1.7764
   566.56         1.7816
   566.70         1.7870
   566.84         1.7922
   566.98         1.7968
   567.12         1.8005
   567.26         1.8028
   567.40         1.8036
   567.54         1.8031
   567.68         1.8015
   567.82         1.7991
   567.96         1.7957
   568.10         1.7917
   568.24         1.7873
   568.38         1.7830
   568.52         1.7788
   568.66         1.7752
   568.80         1.7722
   568.94         1.7699
   569.08         1.7679
   569.22         1.7662
   569.36         1.7649
   569.50         1.7641
   569.64         1.7637
   569.78         1.7635
   569.92         1.7632
   570.06         1.7627
   570.20         1.7619
   570.34         1.7608
   570.48         1.7598
   570.62         1.7592
   570.76         1.7591
   570.90         1.7597
   571.04         1.7609
   571.18         1.7628
   571.32         1.7654
   571.46         1.7686
   571.60         1.7725
   571.74         1.7773
   571.88         1.7830
   572.02         1.7896
   572.16         1.7967
   572.30         1.8041
   572.44         1.8114
   572.58         1.8183
   572.72         1.8247
   572.86         1.8303
   573.00         1.8349
   573.14         1.8380
   573.28         1.8393
   573.42         1.8385
   573.56         1.8355
   573.70         1.8304
   573.84         1.8234
   573.98         1.8146
   574.12         1.8046
   574.26         1.7939
   574.40         1.7830
   574.54         1.7726
   574.68         1.7635
   574.82         1.7563
   574.96         1.7513
   575.10         1.7485
   575.24         1.7473
   575.38         1.7473
   575.52         1.7483
   575.66         1.7500
   575.80         1.7524
   575.94         1.7552
   576.08         1.7581
   576.22         1.7608
   576.36         1.7634
   576.50         1.7663
   576.64         1.7697
   576.78         1.7736
   576.92         1.7779
   577.06         1.7823
   577.20         1.7862
   577.34         1.7892
   577.48         1.7911
   577.62         1.7913
   577.76         1.7899
   577.90         1.7868
   578.04         1.7828
   578.18         1.7784
   578.32         1.7744
   578.46         1.7714
   578.60         1.7699
   578.74         1.7702
   578.88         1.7722
   579.02         1.7758
   579.16         1.7801
   579.30         1.7842
   579.44         1.7872
   579.58         1.7888
   579.72         1.7887
   579.86         1.7872
   580.00         1.7847
   580.14         1.7817
   580.28         1.7786
   580.42         1.7756
   580.56         1.7733
   580.70         1.7718
   580.84         1.7714
   580.98         1.7722
   581.12         1.7743
   581.26         1.7775
   581.40         1.7812
   581.54         1.7852
   581.68         1.7892
   581.82         1.7931
   581.96         1.7968
   582.10         1.8003
   582.24         1.8034
   582.38         1.8058
   582.52         1.8074
   582.66         1.8079
   582.80         1.8073
   582.94         1.8058
   583.08         1.8036
   583.22         1.8010
   583.36         1.7981
   583.50         1.7954
   583.64         1.7929
   583.78         1.7904
   583.92         1.7879
   584.06         1.7855
   584.20         1.7834
   584.34         1.7817
   584.48         1.7800
   584.62         1.7779
   584.76         1.7750
   584.90         1.7715
   585.04         1.7676
   585.18         1.7638
   585.32         1.7602
   585.46         1.7573
   585.60         1.7548
   585.74         1.7529
   585.88         1.7515
   586.02         1.7507
   586.16         1.7507
   586.30         1.7516
   586.44         1.7534
   586.58         1.7559
   586.72         1.7588
   586.86         1.7616
   587.00         1.7637
   587.14         1.7647
   587.28         1.7645
   587.42         1.7631
   587.56         1.7604
   587.70         1.7553
   587.84         1.7468
   587.98         1.7344
   588.12         1.7180
   588.26         1.6985
   588.40         1.6768
   588.54         1.6542
   588.68         1.6326
   588.82         1.6139
   588.96         1.5997
   589.10         1.5914
   589.24         1.5899
   589.38         1.5954
   589.52         1.6074
   589.66         1.6249
   589.80         1.6463
   589.94         1.6695
   590.08         1.6924
   590.22         1.7130
   590.36         1.7297
   590.50         1.7422
   590.64         1.7503
   590.78         1.7546
   590.92         1.7555
   591.06         1.7538
   591.20         1.7502
   591.34         1.7457
   591.48         1.7414
   591.62         1.7377
   591.76         1.7350
   591.90         1.7335
   592.04         1.7327
   592.18         1.7323
   592.32         1.7317
   592.46         1.7308
   592.60         1.7298
   592.74         1.7287
   592.88         1.7275
   593.02         1.7262
   593.16         1.7249
   593.30         1.7236
   593.44         1.7227
   593.58         1.7220
   593.72         1.7214
   593.86         1.7210
   594.00         1.7206
   594.14         1.7201
   594.28         1.7195
   594.42         1.7185
   594.56         1.7169
   594.70         1.7150
   594.84         1.7128
   594.98         1.7109
   595.12         1.7095
   595.26         1.7084
   595.40         1.7076
   595.54         1.7070
   595.68         1.7066
   595.82         1.7064
   595.96         1.7065
   596.10         1.7068
   596.24         1.7072
   596.38         1.7077
   596.52         1.7082
   596.66         1.7087
   596.80         1.7089
   596.94         1.7091
   597.08         1.7094
   597.22         1.7096
   597.36         1.7096
   597.50         1.7094
   597.64         1.7089
   597.78         1.7085
   597.92         1.7084
   598.06         1.7090
   598.20         1.7102
   598.34         1.7124
   598.48         1.7154
   598.62         1.7189
   598.76         1.7226
   598.90         1.7261
   599.04         1.7292
   599.18         1.7317
   599.32         1.7335
   599.46         1.7347
   599.60         1.7353
   599.74         1.7348
   599.88         1.7332
   600.02         1.7305
   600.16         1.7268
   600.30         1.7226
   600.44         1.7183
   600.58         1.7145
   600.72         1.7115
   600.86         1.7096
   601.00         1.7085
   601.14         1.7081
   601.28         1.7078
   601.42         1.7075
   601.56         1.7067
   601.70         1.7053
   601.84         1.7029
   601.98         1.6992
   602.12         1.6942
   602.26         1.6880
   602.40         1.6814
   602.54         1.6749
   602.68         1.6691
   602.82         1.6646
   602.96         1.6620
   603.10         1.6613
   603.24         1.6622
   603.38         1.6640
   603.52         1.6661
   603.66         1.6680
   603.80         1.6697
   603.94         1.6708
   604.08         1.6712
   604.22         1.6710
   604.36         1.6700
   604.50         1.6683
   604.64         1.6661
   604.78         1.6640
   604.92         1.6623
   605.06         1.6610
   605.20         1.6602
   605.34         1.6597
   605.48         1.6593
   605.62         1.6587
   605.76         1.6577
   605.90         1.6562
   606.04         1.6545
   606.18         1.6530
   606.32         1.6520
   606.46         1.6513
   606.60         1.6508
   606.74         1.6504
   606.88         1.6502
   607.02         1.6500
   607.16         1.6500
   607.30         1.6507
   607.44         1.6521
   607.58         1.6539
   607.72         1.6559
   607.86         1.6578
   608.00         1.6592
   608.14         1.6603
   608.28         1.6610
   608.42         1.6616
   608.56         1.6621
   608.70         1.6621
   608.84         1.6609
   608.98         1.6578
   609.12         1.6522
   609.26         1.6441
   609.40         1.6338
   609.54         1.6222
   609.68         1.6101
   609.82         1.5985
   609.96         1.5886
   610.10         1.5810
   610.24         1.5762
   610.38         1.5745
   610.52         1.5761
   610.66         1.5809
   610.80         1.5883
   610.94         1.5975
   611.08         1.6069
   611.22         1.6150
   611.36         1.6203
   611.50         1.6223
   611.64         1.6214
   611.78         1.6183
   611.92         1.6137
   612.06         1.6087
   612.20         1.6040
   612.34         1.6002
   612.48         1.5972
   612.62         1.5952
   612.76         1.5938
   612.90         1.5926
   613.04         1.5915
   613.18         1.5898
   613.32         1.5870
   613.46         1.5828
   613.60         1.5771
   613.74         1.5703
   613.88         1.5629
   614.02         1.5559
   614.16         1.5500
   614.30         1.5455
   614.44         1.5425
   614.58         1.5409
   614.72         1.5409
   614.86         1.5424
   615.00         1.5450
   615.14         1.5481
   615.28         1.5513
   615.42         1.5544
   615.56         1.5570
   615.70         1.5584
   615.84         1.5585
   615.98         1.5574
   616.12         1.5557
   616.26         1.5541
   616.40         1.5529
   616.54         1.5522
   616.68         1.5521
   616.82         1.5529
   616.96         1.5543
   617.10         1.5564
   617.24         1.5593
   617.38         1.5633
   617.52         1.5682
   617.66         1.5735
   617.80         1.5790
   617.94         1.5850
   618.08         1.5912
   618.22         1.5971
   618.36         1.6020
   618.50         1.6058
   618.64         1.6084
   618.78         1.6098
   618.92         1.6099
   619.06         1.6085
   619.20         1.6058
   619.34         1.6021
   619.48         1.5978
   619.62         1.5934
   619.76         1.5894
   619.90         1.5862
   620.04         1.5837
   620.18         1.5817
   620.32         1.5799
   620.46         1.5784
   620.60         1.5768
   620.74         1.5748
   620.88         1.5726
   621.02         1.5702
   621.16         1.5679
   621.30         1.5655
   621.44         1.5630
   621.58         1.5604
   621.72         1.5579
   621.86         1.5557
   622.00         1.5538
   622.14         1.5521
   622.28         1.5505
   622.42         1.5491
   622.56         1.5481
   622.70         1.5479
   622.84         1.5486
   622.98         1.5501
   623.12         1.5521
   623.26         1.5544
   623.40         1.5569
   623.54         1.5592
   623.68         1.5609
   623.82         1.5617
   623.96         1.5621
   624.10         1.5626
   624.24         1.5635
   624.38         1.5644
   624.52         1.5648
   624.66         1.5644
   624.80         1.5631
   624.94         1.5613
   625.08         1.5593
   625.22         1.5571
   625.36         1.5548
   625.50         1.5523
   625.64         1.5493
   625.78         1.5462
   625.92         1.5438
   626.06         1.5425
   626.20         1.5426
   626.34         1.5440
   626.48         1.5466
   626.62         1.5498
   626.76         1.5525
   626.90         1.5535
   627.04         1.5518
   627.18         1.5475
   627.32         1.5410
   627.46         1.5329
   627.60         1.5239
   627.74         1.5151
   627.88         1.5072
   628.02         1.5013
   628.16         1.4979
   628.30         1.4977
   628.44         1.5010
   628.58         1.5077
   628.72         1.5169
   628.86         1.5272
   629.00         1.5371
   629.14         1.5454
   629.28         1.5514
   629.42         1.5549
   629.56         1.5561
   629.70         1.5555
   629.84         1.5535
   629.98         1.5510
   630.12         1.5485
   630.26         1.5462
   630.40         1.5442
   630.54         1.5420
   630.68         1.5396
   630.82         1.5373
   630.96         1.5354
   631.10         1.5341
   631.24         1.5336
   631.38         1.5335
   631.52         1.5337
   631.66         1.5345
   631.80         1.5361
   631.94         1.5386
   632.08         1.5420
   632.22         1.5458
   632.36         1.5497
   632.50         1.5528
   632.64         1.5543
   632.78         1.5533
   632.92         1.5496
   633.06         1.5441
   633.20         1.5375
   633.34         1.5308
   633.48         1.5243
   633.62         1.5181
   633.76         1.5121
   633.90         1.5066
   634.04         1.5020
   634.18         1.4988
   634.32         1.4972
   634.46         1.4971
   634.60         1.4979
   634.74         1.4993
   634.88         1.5010
   635.02         1.5027
   635.16         1.5041
   635.30         1.5052
   635.44         1.5063
   635.58         1.5079
   635.72         1.5098
   635.86         1.5116
   636.00         1.5129
   636.14         1.5138
   636.28         1.5145
   636.42         1.5154
   636.56         1.5165
   636.70         1.5176
   636.84         1.5181
   636.98         1.5179
   637.12         1.5166
   637.26         1.5143
   637.40         1.5112
   637.54         1.5080
   637.68         1.5050
   637.82         1.5025
   637.96         1.5005
   638.10         1.4989
   638.24         1.4976
   638.38         1.4963
   638.52         1.4949
   638.66         1.4936
   638.80         1.4920
   638.94         1.4898
   639.08         1.4867
   639.22         1.4829
   639.36         1.4787
   639.50         1.4748
   639.64         1.4714
   639.78         1.4684
   639.92         1.4657
   640.06         1.4630
   640.20         1.4603
   640.34         1.4574
   640.48         1.4543
   640.62         1.4510
   640.76         1.4478
   640.90         1.4452
   641.04         1.4433
   641.18         1.4419
   641.32         1.4411
   641.46         1.4405
   641.60         1.4405
   641.74         1.4417
   641.88         1.4444
   642.02         1.4483
   642.16         1.4529
   642.30         1.4570
   642.44         1.4602
   642.58         1.4619
   642.72         1.4622
   642.86         1.4611
   643.00         1.4584
   643.14         1.4542
   643.28         1.4485
   643.42         1.4420
   643.56         1.4351
   643.70         1.4287
   643.84         1.4232
   643.98         1.4194
   644.12         1.4176
   644.26         1.4182
   644.40         1.4214
   644.54         1.4266
   644.68         1.4332
   644.82         1.4406
   644.96         1.4480
   645.10         1.4551
   645.24         1.4615
   645.38         1.4668
   645.52         1.4709
   645.66         1.4738
   645.80         1.4755
   645.94         1.4762
   646.08         1.4757
   646.22         1.4739
   646.36         1.4708
   646.50         1.4670
   646.64         1.4630
   646.78         1.4595
   646.92         1.4569
   647.06         1.4553
   647.20         1.4544
   647.34         1.4538
   647.48         1.4533
   647.62         1.4528
   647.76         1.4522
   647.90         1.4516
   648.04         1.4508
   648.18         1.4499
   648.32         1.4483
   648.46         1.4457
   648.60         1.4418
   648.74         1.4370
   648.88         1.4315
   649.02         1.4260
   649.16         1.4208
   649.30         1.4164
   649.44         1.4132
   649.58         1.4118
   649.72         1.4124
   649.86         1.4150
   650.00         1.4196
   650.14         1.4260
   650.28         1.4335
   650.42         1.4416
   650.56         1.4493
   650.70         1.4559
   650.84         1.4609
   650.98         1.4639
   651.12         1.4652
   651.26         1.4654
   651.40         1.4650
   651.54         1.4643
   651.68         1.4635
   651.82         1.4627
   651.96         1.4620
   652.10         1.4612
   652.24         1.4599
   652.38         1.4577
   652.52         1.4545
   652.66         1.4507
   652.80         1.4467
   652.94         1.4428
   653.08         1.4394
   653.22         1.4370
   653.36         1.4356
   653.50         1.4350
   653.64         1.4347
   653.78         1.4342
   653.92         1.4332
   654.06         1.4312
   654.20         1.4281
   654.34         1.4239
   654.48         1.4185
   654.62         1.4121
   654.76         1.4046
   654.90         1.3959
   655.04         1.3855
   655.18         1.3726
   655.32         1.3562
   655.46         1.3359
   655.60         1.3123
   655.74         1.2865
   655.88         1.2602
   656.02         1.2350
   656.16         1.2131
   656.30         1.1968
   656.44         1.1879
   656.58         1.1877
   656.72         1.1960
   656.86         1.2119
   657.00         1.2334
   657.14         1.2580
   657.28         1.2834
   657.42         1.3073
   657.56         1.3278
   657.70         1.3438
   657.84         1.3556
   657.98         1.3641
   658.12         1.3702
   658.26         1.3746
   658.40         1.3775
   658.54         1.3791
   658.68         1.3798
   658.82         1.3802
   658.96         1.3806
   659.10         1.3811
   659.24         1.3819
   659.38         1.3832
   659.52         1.3851
   659.66         1.3880
   659.80         1.3916
   659.94         1.3959
   660.08         1.4006
   660.22         1.4057
   660.36         1.4111
   660.50         1.4163
   660.64         1.4207
   660.78         1.4239
   660.92         1.4260
   661.06         1.4274
   661.20         1.4287
   661.34         1.4304
   661.48         1.4326
   661.62         1.4353
   661.76         1.4383
   661.90         1.4415
   662.04         1.4447
   662.18         1.4474
   662.32         1.4489
   662.46         1.4484
   662.60         1.4461
   662.74         1.4423
   662.88         1.4377
   663.02         1.4326
   663.16         1.4275
   663.30         1.4226
   663.44         1.4178
   663.58         1.4133
   663.72         1.4091
   663.86         1.4054
   664.00         1.4026
   664.14         1.4012
   664.28         1.4013
   664.42         1.4026
   664.56         1.4047
   664.70         1.4068
   664.84         1.4087
   664.98         1.4106
   665.12         1.4127
   665.26         1.4154
   665.40         1.4189
   665.54         1.4231
   665.68         1.4273
   665.82         1.4309
   665.96         1.4335
   666.10         1.4347
   666.24         1.4346
   666.38         1.4331
   666.52         1.4305
   666.66         1.4269
   666.80         1.4221
   666.94         1.4164
   667.08         1.4101
   667.22         1.4044
   667.36         1.4004
   667.50         1.3990
   667.64         1.4005
   667.78         1.4048
   667.92         1.4117
   668.06         1.4208
   668.20         1.4310
   668.34         1.4412
   668.48         1.4503
   668.62         1.4572
   668.76         1.4612
   668.90         1.4620
   669.04         1.4598
   669.18         1.4553
   669.32         1.4493
   669.46         1.4427
   669.60         1.4364
   669.74         1.4313
   669.88         1.4278
   670.02         1.4261
   670.16         1.4260
   670.30         1.4268
   670.44         1.4279
   670.58         1.4288
   670.72         1.4285
   670.86         1.4265
   671.00         1.4224
   671.14         1.4167
   671.28         1.4101
   671.42         1.4036
   671.56         1.3982
   671.70         1.3943
   671.84         1.3921
   671.98         1.3918
   672.12         1.3936
   672.26         1.3973
   672.40         1.4023
   672.54         1.4079
   672.68         1.4132
   672.82         1.4175
   672.96         1.4202
   673.10         1.4211
   673.24         1.4201
   673.38         1.4174
   673.52         1.4134
   673.66         1.4086
   673.80         1.4032
   673.94         1.3973
   674.08         1.3913
   674.22         1.3851
   674.36         1.3792
   674.50         1.3740
   674.64         1.3698
   674.78         1.3668
   674.92         1.3649
   675.06         1.3640
   675.20         1.3640
   675.34         1.3650
   675.48         1.3670
   675.62         1.3701
   675.76         1.3742
   675.90         1.3790
   676.04         1.3841
   676.18         1.3890
   676.32         1.3933
   676.46         1.3970
   676.60         1.4003
   676.74         1.4033
   676.88         1.4060
   677.02         1.4081
   677.16         1.4094
   677.30         1.4096
   677.44         1.4090
   677.58         1.4075
   677.72         1.4056
   677.86         1.4033
   678.00         1.4009
   678.14         1.3988
   678.28         1.3971
   678.42         1.3957
   678.56         1.3946
   678.70         1.3939
   678.84         1.3936
   678.98         1.3937
   679.12         1.3941
   679.26         1.3951
   679.40         1.3964
   679.54         1.3980
   679.68         1.3996
   679.82         1.4009
   679.96         1.4019
   680.10         1.4026
   680.24         1.4029
   680.38         1.4029
   680.52         1.4023
   680.66         1.4009
   680.80         1.3986
   680.94         1.3956
   681.08         1.3920
   681.22         1.3881
   681.36         1.3842
   681.50         1.3808
   681.64         1.3783
   681.78         1.3772
   681.92         1.3776
   682.06         1.3791
   682.20         1.3817
   682.34         1.3852
   682.48         1.3896
   682.62         1.3944
   682.76         1.3992
   682.90         1.4032
   683.04         1.4056
   683.18         1.4057
   683.32         1.4035
   683.46         1.3989
   683.60         1.3922
   683.74         1.3840
   683.88         1.3749
   684.02         1.3658
   684.16         1.3573
   684.30         1.3499
   684.44         1.3439
   684.58         1.3395
   684.72         1.3369
   684.86         1.3362
   685.00         1.3369
   685.14         1.3387
   685.28         1.3408
   685.42         1.3429
   685.56         1.3444
   685.70         1.3444
   685.84         1.3415
   685.98         1.3342
   686.12         1.3218
   686.26         1.3045
   686.40         1.2827
   686.54         1.2575
   686.68         1.2303
   686.82         1.2032
   686.96         1.1787
   687.10         1.1589
   687.24         1.1458
   687.38         1.1403
   687.52         1.1426
   687.66         1.1517
   687.80         1.1658
   687.94         1.1829
   688.08         1.2008
   688.22         1.2173
   688.36         1.2306
   688.50         1.2401
   688.64         1.2463
   688.78         1.2502
   688.92         1.2524
   689.06         1.2537
   689.20         1.2549
   689.34         1.2567
   689.48         1.2599
   689.62         1.2646
   689.76         1.2709
   689.90         1.2786
   690.04         1.2870
   690.18         1.2955
   690.32         1.3035
   690.46         1.3105
   690.60         1.3163
   690.74         1.3207
   690.88         1.3234
   691.02         1.3243
   691.16         1.3236
   691.30         1.3211
   691.44         1.3169
   691.58         1.3109
   691.72         1.3042
   691.86         1.2976
   692.00         1.2921
   692.14         1.2883
   692.28         1.2865
   692.42         1.2866
   692.56         1.2884
   692.70         1.2919
   692.84         1.2970
   692.98         1.3036
   693.12         1.3112
   693.26         1.3193
   693.40         1.3277
   693.54         1.3359
   693.68         1.3434
   693.82         1.3498
   693.96         1.3549
   694.10         1.3583
   694.24         1.3601
   694.38         1.3603
   694.52         1.3593
   694.66         1.3575
   694.80         1.3554
   694.94         1.3536
   695.08         1.3523
   695.22         1.3519
   695.36         1.3523
   695.50         1.3533
   695.64         1.3547
   695.78         1.3563
   695.92         1.3578
   696.06         1.3589
   696.20         1.3597
   696.34         1.3603
   696.48         1.3606
   696.62         1.3606
   696.76         1.3598
   696.90         1.3578
   697.04         1.3544
   697.18         1.3497
   697.32         1.3438
   697.46         1.3366
   697.60         1.3283
   697.74         1.3197
   697.88         1.3116
   698.02         1.3048
   698.16         1.3003
   698.30         1.2986
   698.44         1.2997
   698.58         1.3036
   698.72         1.3099
   698.86         1.3183
   699.00         1.3276
   699.14         1.3365
   699.28         1.3439
   699.42         1.3495
   699.56         1.3531
   699.70         1.3548
   699.84         1.3551
   699.98         1.3542
   700.12         1.3527
   700.26         1.3513
   700.40         1.3504
   700.54         1.3500
   700.68         1.3499
   700.82         1.3498
   700.96         1.3490
   701.10         1.3474
   701.24         1.3450
   701.38         1.3419
   701.52         1.3384
   701.66         1.3346
   701.80         1.3308
   701.94         1.3271
   702.08         1.3240
   702.22         1.3216
   702.36         1.3197
   702.50         1.3181
   702.64         1.3167
   702.78         1.3151
   702.92         1.3134
   703.06         1.3112
   703.20         1.3090
   703.34         1.3070
   703.48         1.3059
   703.62         1.3063
   703.76         1.3088
   703.90         1.3137
   704.04         1.3205
   704.18         1.3286
   704.32         1.3371
   704.46         1.3453
   704.60         1.3528
   704.74         1.3596
   704.88         1.3652
   705.02         1.3692
   705.16         1.3715
   705.30         1.3720
   705.44         1.3709
   705.58         1.3684
   705.72         1.3651
   705.86         1.3616
   706.00         1.3582
   706.14         1.3552
   706.28         1.3529
   706.42         1.3516
   706.56         1.3512
   706.70         1.3516
   706.84         1.3527
   706.98         1.3542
   707.12         1.3563
   707.26         1.3588
   707.40         1.3613
   707.54         1.3632
   707.68         1.3638
   707.82         1.3628
   707.96         1.3603
   708.10         1.3567
   708.24         1.3526
   708.38         1.3482
   708.52         1.3439
   708.66         1.3397
   708.80         1.3358
   708.94         1.3331
   709.08         1.3317
   709.22         1.3318
   709.36         1.3331
   709.50         1.3351
   709.64         1.3376
   709.78         1.3405
   709.92         1.3431
   710.06         1.3449
   710.20         1.3455
   710.34         1.3449
   710.48         1.3437
   710.62         1.3422
   710.76         1.3406
   710.90         1.3391
   711.04         1.3378
   711.18         1.3368
   711.32         1.3361
   711.46         1.3356
   711.60         1.3353
   711.74         1.3350
   711.88         1.3345
   712.02         1.3336
   712.16         1.3321
   712.30         1.3305
   712.44         1.3291
   712.58         1.3283
   712.72         1.3284
   712.86         1.3295
   713.00         1.3318
   713.14         1.3351
   713.28         1.3391
   713.42         1.3435
   713.56         1.3476
   713.70         1.3505
   713.84         1.3516
   713.98         1.3510
   714.12         1.3487
   714.26         1.3453
   714.40         1.3412
   714.54         1.3369
   714.68         1.3328
   714.82         1.3295
   714.96         1.3275
   715.10         1.3267
   715.24         1.3265
   715.38         1.3264
   715.52         1.3258
   715.66         1.3248
   715.80         1.3231
   715.94         1.3203
   716.08         1.3157
   716.22         1.3092
   716.36         1.3013
   716.50         1.2928
   716.64         1.2844
   716.78         1.2764
   716.92         1.2687
   717.06         1.2613
   717.20         1.2541
   717.34         1.2468
   717.48         1.2391
   717.62         1.2310
   717.76         1.2228
   717.90         1.2151
   718.04         1.2083
   718.18         1.2028
   718.32         1.1990
   718.46         1.1968
   718.60         1.1965
   718.74         1.1981
   718.88         1.2011
   719.02         1.2049
   719.16         1.2084
   719.30         1.2112
   719.44         1.2128
   719.58         1.2131
   719.72         1.2127
   719.86         1.2121
   720.00         1.2121
   720.14         1.2134
   720.28         1.2167
   720.42         1.2223
   720.56         1.2300
   720.70         1.2397
   720.84         1.2512
   720.98         1.2642
   721.12         1.2778
   721.26         1.2910
   721.40         1.3030
   721.54         1.3135
   721.68         1.3225
   721.82         1.3307
   721.96         1.3382
   722.10         1.3447
   722.24         1.3498
   722.38         1.3533
   722.52         1.3549
   722.66         1.3544
   722.80         1.3511
   722.94         1.3448
   723.08         1.3354
   723.22         1.3235
   723.36         1.3099
   723.50         1.2952
   723.64         1.2803
   723.78         1.2663
   723.92         1.2543
   724.06         1.2452
   724.20         1.2394
   724.34         1.2369
   724.48         1.2376
   724.62         1.2413
   724.76         1.2480
   724.90         1.2574
   725.04         1.2688
   725.18         1.2810
   725.32         1.2927
   725.46         1.3027
   725.60         1.3106
   725.74         1.3160
   725.88         1.3187
   726.02         1.3188
   726.16         1.3164
   726.30         1.3120
   726.44         1.3060
   726.58         1.2988
   726.72         1.2911
   726.86         1.2834
   727.00         1.2766
   727.14         1.2714
   727.28         1.2678
   727.42         1.2656
   727.56         1.2642
   727.70         1.2630
   727.84         1.2616
   727.98         1.2593
   728.12         1.2559
   728.26         1.2514
   728.40         1.2459
   728.54         1.2397
   728.68         1.2332
   728.82         1.2268
   728.96         1.2208
   729.10         1.2153
   729.24         1.2103
   729.38         1.2059
   729.52         1.2027
   729.66         1.2008
   729.80         1.2004
   729.94         1.2013
   730.08         1.2031
   730.22         1.2051
   730.36         1.2064
   730.50         1.2063
   730.64         1.2048
   730.78         1.2023
   730.92         1.1995
   731.06         1.1973
   731.20         1.1964
   731.34         1.1968
   731.48         1.1985
   731.62         1.2012
   731.76         1.2048
   731.90         1.2090
   732.04         1.2138
   732.18         1.2187
   732.32         1.2231
   732.46         1.2268
   732.60         1.2297
   732.74         1.2320
   732.88         1.2342
   733.02         1.2368
   733.16         1.2403
   733.30         1.2451
   733.44         1.2512
   733.58         1.2585
   733.72         1.2665
   733.86         1.2743
   734.00         1.2808
   734.14         1.2852
   734.28         1.2869
   734.42         1.2856
   734.56         1.2811
   734.70         1.2739
   734.84         1.2649
   734.98         1.2553
   735.12         1.2462
   735.26         1.2381
   735.40         1.2316
   735.54         1.2273
   735.68         1.2250
   735.82         1.2245
   735.96         1.2254
   736.10         1.2272
   736.24         1.2296
   736.38         1.2325
   736.52         1.2356
   736.66         1.2389
   736.80         1.2421
   736.94         1.2453
   737.08         1.2483
   737.22         1.2509
   737.36         1.2527
   737.50         1.2533
   737.64         1.2522
   737.78         1.2490
   737.92         1.2432
   738.06         1.2345
   738.20         1.2227
   738.34         1.2076
   738.48         1.1896
   738.62         1.1703
   738.76         1.1513
   738.90         1.1342
   739.04         1.1200
   739.18         1.1095
   739.32         1.1029
   739.46         1.0998
   739.60         1.0989
   739.74         1.0993
   739.88         1.1009
   740.02         1.1037
   740.16         1.1074
   740.30         1.1120
   740.44         1.1175
   740.58         1.1240
   740.72         1.1311
   740.86         1.1383
   741.00         1.1450
   741.14         1.1511
   741.28         1.1567
   741.42         1.1617
   741.56         1.1658
   741.70         1.1688
   741.84         1.1710
   741.98         1.1723
   742.12         1.1727
   742.26         1.1724
   742.40         1.1722
   742.54         1.1720
   742.68         1.1716
   742.82         1.1711
   742.96         1.1711
   743.10         1.1716
   743.24         1.1720
   743.38         1.1722
   743.52         1.1724
   743.66         1.1727
   743.80         1.1723
   743.94         1.1710
   744.08         1.1688
   744.22         1.1658
