# File FEIGE41
# Wavelength [nm]    Normalized Amplitude
   349.70         2.4991
   349.84         2.5253
   349.98         2.5468
   350.12         2.5624
   350.26         2.5724
   350.40         2.5781
   350.54         2.5806
   350.68         2.5809
   350.82         2.5800
   350.96         2.5789
   351.10         2.5784
   351.24         2.5789
   351.38         2.5800
   351.52         2.5809
   351.66         2.5806
   351.80         2.5781
   351.94         2.5724
   352.08         2.5624
   352.22         2.5468
   352.36         2.5253
   352.50         2.4991
   352.64         2.4705
   352.78         2.4415
   352.92         2.4136
   353.06         2.3884
   353.20         2.3672
   353.34         2.3513
   353.48         2.3417
   353.62         2.3391
   353.76         2.3433
   353.90         2.3533
   354.04         2.3673
   354.18         2.3829
   354.32         2.3974
   354.46         2.4085
   354.60         2.4148
   354.74         2.4160
   354.88         2.4123
   355.02         2.4045
   355.16         2.3934
   355.30         2.3794
   355.44         2.3627
   355.58         2.3447
   355.72         2.3275
   355.86         2.3128
   356.00         2.3015
   356.14         2.2940
   356.28         2.2896
   356.42         2.2867
   356.56         2.2836
   356.70         2.2789
   356.84         2.2718
   356.98         2.2619
   357.12         2.2488
   357.26         2.2319
   357.40         2.2104
   357.54         2.1840
   357.68         2.1535
   357.82         2.1203
   357.96         2.0867
   358.10         2.0555
   358.24         2.0297
   358.38         2.0111
   358.52         2.0008
   358.66         1.9987
   358.80         2.0038
   358.94         2.0157
   359.08         2.0348
   359.22         2.0611
   359.36         2.0935
   359.50         2.1302
   359.64         2.1684
   359.78         2.2058
   359.92         2.2399
   360.06         2.2690
   360.20         2.2917
   360.34         2.3068
   360.48         2.3136
   360.62         2.3115
   360.76         2.3008
   360.90         2.2827
   361.04         2.2591
   361.18         2.2323
   361.32         2.2051
   361.46         2.1801
   361.60         2.1604
   361.74         2.1476
   361.88         2.1417
   362.02         2.1414
   362.16         2.1450
   362.30         2.1512
   362.44         2.1590
   362.58         2.1678
   362.72         2.1778
   362.86         2.1887
   363.00         2.2000
   363.14         2.2105
   363.28         2.2191
   363.42         2.2256
   363.56         2.2293
   363.70         2.2300
   363.84         2.2270
   363.98         2.2202
   364.12         2.2100
   364.26         2.1971
   364.40         2.1826
   364.54         2.1675
   364.68         2.1530
   364.82         2.1401
   364.96         2.1302
   365.10         2.1242
   365.24         2.1231
   365.38         2.1269
   365.52         2.1347
   365.66         2.1452
   365.80         2.1571
   365.94         2.1695
   366.08         2.1810
   366.22         2.1900
   366.36         2.1955
   366.50         2.1972
   366.64         2.1955
   366.78         2.1916
   366.92         2.1865
   367.06         2.1813
   367.20         2.1762
   367.34         2.1713
   367.48         2.1669
   367.62         2.1630
   367.76         2.1602
   367.90         2.1592
   368.04         2.1609
   368.18         2.1656
   368.32         2.1730
   368.46         2.1826
   368.60         2.1932
   368.74         2.2041
   368.88         2.2151
   369.02         2.2263
   369.16         2.2375
   369.30         2.2473
   369.44         2.2544
   369.58         2.2581
   369.72         2.2582
   369.86         2.2552
   370.00         2.2501
   370.14         2.2446
   370.28         2.2407
   370.42         2.2407
   370.56         2.2468
   370.70         2.2594
   370.84         2.2773
   370.98         2.2985
   371.12         2.3208
   371.26         2.3424
   371.40         2.3627
   371.54         2.3830
   371.68         2.4046
   371.82         2.4278
   371.96         2.4517
   372.10         2.4749
   372.24         2.4952
   372.38         2.5103
   372.52         2.5188
   372.66         2.5207
   372.80         2.5178
   372.94         2.5131
   373.08         2.5097
   373.22         2.5101
   373.36         2.5155
   373.50         2.5261
   373.64         2.5404
   373.78         2.5556
   373.92         2.5686
   374.06         2.5765
   374.20         2.5768
   374.34         2.5676
   374.48         2.5488
   374.62         2.5228
   374.76         2.4944
   374.90         2.4698
   375.04         2.4556
   375.18         2.4571
   375.32         2.4779
   375.46         2.5176
   375.60         2.5716
   375.74         2.6319
   375.88         2.6890
   376.02         2.7341
   376.16         2.7610
   376.30         2.7674
   376.44         2.7551
   376.58         2.7301
   376.72         2.7010
   376.86         2.6781
   377.00         2.6719
   377.14         2.6912
   377.28         2.7414
   377.42         2.8235
   377.56         2.9335
   377.70         3.0641
   377.84         3.2049
   377.98         3.3439
   378.12         3.4672
   378.26         3.5616
   378.40         3.6165
   378.54         3.6260
   378.68         3.5896
   378.82         3.5117
   378.96         3.4010
   379.10         3.2692
   379.24         3.1308
   379.38         3.0018
   379.52         2.8981
   379.66         2.8337
   379.80         2.8187
   379.94         2.8574
   380.08         2.9481
   380.22         3.0849
   380.36         3.2586
   380.50         3.4577
   380.64         3.6694
   380.78         3.8800
   380.92         4.0769
   381.06         4.2497
   381.20         4.3910
   381.34         4.4965
   381.48         4.5640
   381.62         4.5932
   381.76         4.5840
   381.90         4.5367
   382.04         4.4519
   382.18         4.3305
   382.32         4.1747
   382.46         3.9886
   382.60         3.7793
   382.74         3.5575
   382.88         3.3374
   383.02         3.1351
   383.16         2.9659
   383.30         2.8418
   383.44         2.7703
   383.58         2.7555
   383.72         2.7983
   383.86         2.8963
   384.00         3.0445
   384.14         3.2344
   384.28         3.4543
   384.42         3.6904
   384.56         3.9292
   384.70         4.1593
   384.84         4.3729
   384.98         4.5661
   385.12         4.7378
   385.26         4.8883
   385.40         5.0190
   385.54         5.1311
   385.68         5.2248
   385.82         5.2992
   385.96         5.3534
   386.10         5.3874
   386.24         5.4020
   386.38         5.3981
   386.52         5.3757
   386.66         5.3331
   386.80         5.2677
   386.94         5.1764
   387.08         5.0574
   387.22         4.9108
   387.36         4.7376
   387.50         4.5398
   387.64         4.3199
   387.78         4.0816
   387.92         3.8314
   388.06         3.5785
   388.20         3.3342
   388.34         3.1108
   388.48         2.9209
   388.62         2.7756
   388.76         2.6839
   388.90         2.6515
   389.04         2.6805
   389.18         2.7685
   389.32         2.9093
   389.46         3.0935
   389.60         3.3097
   389.74         3.5454
   389.88         3.7885
   390.02         4.0276
   390.16         4.2539
   390.30         4.4617
   390.44         4.6490
   390.58         4.8155
   390.72         4.9619
   390.86         5.0898
   391.00         5.2020
   391.14         5.3012
   391.28         5.3891
   391.42         5.4669
   391.56         5.5349
   391.70         5.5922
   391.84         5.6368
   391.98         5.6662
   392.12         5.6782
   392.26         5.6721
   392.40         5.6492
   392.54         5.6123
   392.68         5.5650
   392.82         5.5120
   392.96         5.4588
   393.10         5.4108
   393.24         5.3724
   393.38         5.3464
   393.52         5.3336
   393.66         5.3312
   393.80         5.3342
   393.94         5.3364
   394.08         5.3316
   394.22         5.3142
   394.36         5.2796
   394.50         5.2247
   394.64         5.1484
   394.78         5.0517
   394.92         4.9367
   395.06         4.8047
   395.20         4.6560
   395.34         4.4906
   395.48         4.3087
   395.62         4.1109
   395.76         3.8980
   395.90         3.6725
   396.04         3.4395
   396.18         3.2066
   396.32         2.9842
   396.46         2.7845
   396.60         2.6191
   396.74         2.4977
   396.88         2.4279
   397.02         2.4140
   397.16         2.4565
   397.30         2.5521
   397.44         2.6939
   397.58         2.8724
   397.72         3.0766
   397.86         3.2955
   398.00         3.5199
   398.14         3.7423
   398.28         3.9566
   398.42         4.1583
   398.56         4.3448
   398.70         4.5155
   398.84         4.6701
   398.98         4.8087
   399.12         4.9318
   399.26         5.0401
   399.40         5.1350
   399.54         5.2181
   399.68         5.2912
   399.82         5.3559
   399.96         5.4135
   400.10         5.4650
   400.24         5.5105
   400.38         5.5499
   400.52         5.5838
   400.66         5.6131
   400.80         5.6376
   400.94         5.6565
   401.08         5.6693
   401.22         5.6763
   401.36         5.6786
   401.50         5.6774
   401.64         5.6744
   401.78         5.6700
   401.92         5.6648
   402.06         5.6591
   402.20         5.6535
   402.34         5.6477
   402.48         5.6415
   402.62         5.6347
   402.76         5.6276
   402.90         5.6201
   403.04         5.6121
   403.18         5.6038
   403.32         5.5948
   403.46         5.5847
   403.60         5.5735
   403.74         5.5622
   403.88         5.5517
   404.02         5.5429
   404.16         5.5352
   404.30         5.5276
   404.44         5.5188
   404.58         5.5086
   404.72         5.4973
   404.86         5.4852
   405.00         5.4723
   405.14         5.4584
   405.28         5.4437
   405.42         5.4281
   405.56         5.4116
   405.70         5.3932
   405.84         5.3725
   405.98         5.3492
   406.12         5.3237
   406.26         5.2959
   406.40         5.2652
   406.54         5.2302
   406.68         5.1900
   406.82         5.1445
   406.96         5.0942
   407.10         5.0396
   407.24         4.9811
   407.38         4.9189
   407.52         4.8532
   407.66         4.7837
   407.80         4.7098
   407.94         4.6305
   408.08         4.5441
   408.22         4.4476
   408.36         4.3381
   408.50         4.2135
   408.64         4.0722
   408.78         3.9133
   408.92         3.7364
   409.06         3.5431
   409.20         3.3377
   409.34         3.1276
   409.48         2.9221
   409.62         2.7319
   409.76         2.5677
   409.90         2.4397
   410.04         2.3566
   410.18         2.3244
   410.32         2.3455
   410.46         2.4178
   410.60         2.5361
   410.74         2.6928
   410.88         2.8784
   411.02         3.0827
   411.16         3.2957
   411.30         3.5078
   411.44         3.7107
   411.58         3.8978
   411.72         4.0649
   411.86         4.2101
   412.00         4.3330
   412.14         4.4342
   412.28         4.5161
   412.42         4.5819
   412.56         4.6353
   412.70         4.6796
   412.84         4.7176
   412.98         4.7517
   413.12         4.7843
   413.26         4.8175
   413.40         4.8530
   413.54         4.8914
   413.68         4.9317
   413.82         4.9725
   413.96         5.0115
   414.10         5.0467
   414.24         5.0766
   414.38         5.1000
   414.52         5.1166
   414.66         5.1267
   414.80         5.1312
   414.94         5.1310
   415.08         5.1272
   415.22         5.1209
   415.36         5.1130
   415.50         5.1046
   415.64         5.0969
   415.78         5.0902
   415.92         5.0851
   416.06         5.0814
   416.20         5.0788
   416.34         5.0767
   416.48         5.0746
   416.62         5.0719
   416.76         5.0683
   416.90         5.0633
   417.04         5.0569
   417.18         5.0488
   417.32         5.0389
   417.46         5.0272
   417.60         5.0143
   417.74         5.0007
   417.88         4.9869
   418.02         4.9730
   418.16         4.9591
   418.30         4.9458
   418.44         4.9339
   418.58         4.9237
   418.72         4.9152
   418.86         4.9079
   419.00         4.9018
   419.14         4.8972
   419.28         4.8950
   419.42         4.8962
   419.56         4.9014
   419.70         4.9108
   419.84         4.9232
   419.98         4.9375
   420.12         4.9522
   420.26         4.9657
   420.40         4.9766
   420.54         4.9838
   420.68         4.9866
   420.82         4.9847
   420.96         4.9784
   421.10         4.9687
   421.24         4.9566
   421.38         4.9434
   421.52         4.9301
   421.66         4.9176
   421.80         4.9069
   421.94         4.8985
   422.08         4.8918
   422.22         4.8863
   422.36         4.8810
   422.50         4.8760
   422.64         4.8721
   422.78         4.8702
   422.92         4.8708
   423.06         4.8740
   423.20         4.8788
   423.34         4.8834
   423.48         4.8863
   423.62         4.8860
   423.76         4.8807
   423.90         4.8696
   424.04         4.8524
   424.18         4.8301
   424.32         4.8044
   424.46         4.7770
   424.60         4.7494
   424.74         4.7226
   424.88         4.6981
   425.02         4.6772
   425.16         4.6612
   425.30         4.6504
   425.44         4.6442
   425.58         4.6412
   425.72         4.6401
   425.86         4.6398
   426.00         4.6398
   426.14         4.6400
   426.28         4.6411
   426.42         4.6438
   426.56         4.6485
   426.70         4.6554
   426.84         4.6646
   426.98         4.6763
   427.12         4.6914
   427.26         4.7104
   427.40         4.7331
   427.54         4.7589
   427.68         4.7861
   427.82         4.8121
   427.96         4.8340
   428.10         4.8491
   428.24         4.8556
   428.38         4.8525
   428.52         4.8399
   428.66         4.8181
   428.80         4.7882
   428.94         4.7514
   429.08         4.7093
   429.22         4.6643
   429.36         4.6186
   429.50         4.5745
   429.64         4.5333
   429.78         4.4956
   429.92         4.4611
   430.06         4.4292
   430.20         4.3994
   430.34         4.3714
   430.48         4.3453
   430.62         4.3212
   430.76         4.2986
   430.90         4.2765
   431.04         4.2532
   431.18         4.2269
   431.32         4.1952
   431.46         4.1559
   431.60         4.1074
   431.74         4.0483
   431.88         3.9775
   432.02         3.8942
   432.16         3.7977
   432.30         3.6881
   432.44         3.5657
   432.58         3.4310
   432.72         3.2845
   432.86         3.1280
   433.00         2.9643
   433.14         2.7977
   433.28         2.6340
   433.42         2.4801
   433.56         2.3433
   433.70         2.2306
   433.84         2.1479
   433.98         2.0994
   434.12         2.0875
   434.26         2.1127
   434.40         2.1734
   434.54         2.2662
   434.68         2.3857
   434.82         2.5251
   434.96         2.6764
   435.10         2.8320
   435.24         2.9857
   435.38         3.1332
   435.52         3.2717
   435.66         3.3997
   435.80         3.5165
   435.94         3.6220
   436.08         3.7160
   436.22         3.7989
   436.36         3.8711
   436.50         3.9334
   436.64         3.9869
   436.78         4.0326
   436.92         4.0717
   437.06         4.1048
   437.20         4.1321
   437.34         4.1538
   437.48         4.1706
   437.62         4.1839
   437.76         4.1951
   437.90         4.2055
   438.04         4.2152
   438.18         4.2243
   438.32         4.2328
   438.46         4.2411
   438.60         4.2495
   438.74         4.2580
   438.88         4.2660
   439.02         4.2730
   439.16         4.2789
   439.30         4.2841
   439.44         4.2893
   439.58         4.2951
   439.72         4.3019
   439.86         4.3092
   440.00         4.3165
   440.14         4.3228
   440.28         4.3266
   440.42         4.3261
   440.56         4.3202
   440.70         4.3087
   440.84         4.2919
   440.98         4.2712
   441.12         4.2482
   441.26         4.2250
   441.40         4.2034
   441.54         4.1860
   441.68         4.1748
   441.82         4.1710
   441.96         4.1745
   442.10         4.1838
   442.24         4.1972
   442.38         4.2122
   442.52         4.2266
   442.66         4.2386
   442.80         4.2468
   442.94         4.2503
   443.08         4.2488
   443.22         4.2429
   443.36         4.2342
   443.50         4.2246
   443.64         4.2157
   443.78         4.2085
   443.92         4.2038
   444.06         4.2020
   444.20         4.2027
   444.34         4.2049
   444.48         4.2075
   444.62         4.2097
   444.76         4.2105
   444.90         4.2093
   445.04         4.2056
   445.18         4.1988
   445.32         4.1893
   445.46         4.1776
   445.60         4.1649
   445.74         4.1523
   445.88         4.1412
   446.02         4.1325
   446.16         4.1261
   446.30         4.1215
   446.44         4.1189
   446.58         4.1183
   446.72         4.1194
   446.86         4.1208
   447.00         4.1207
   447.14         4.1178
   447.28         4.1115
   447.42         4.1021
   447.56         4.0901
   447.70         4.0762
   447.84         4.0614
   447.98         4.0472
   448.12         4.0351
   448.26         4.0261
   448.40         4.0212
   448.54         4.0207
   448.68         4.0249
   448.82         4.0333
   448.96         4.0454
   449.10         4.0599
   449.24         4.0749
   449.38         4.0880
   449.52         4.0972
   449.66         4.1022
   449.80         4.1036
   449.94         4.1029
   450.08         4.1010
   450.22         4.0984
   450.36         4.0955
   450.50         4.0930
   450.64         4.0912
   450.78         4.0901
   450.92         4.0893
   451.06         4.0886
   451.20         4.0878
   451.34         4.0867
   451.48         4.0851
   451.62         4.0830
   451.76         4.0799
   451.90         4.0754
   452.04         4.0695
   452.18         4.0628
   452.32         4.0559
   452.46         4.0495
   452.60         4.0442
   452.74         4.0404
   452.88         4.0380
   453.02         4.0369
   453.16         4.0364
   453.30         4.0353
   453.44         4.0325
   453.58         4.0270
   453.72         4.0180
   453.86         4.0054
   454.00         3.9895
   454.14         3.9710
   454.28         3.9509
   454.42         3.9306
   454.56         3.9117
   454.70         3.8960
   454.84         3.8848
   454.98         3.8787
   455.12         3.8777
   455.26         3.8814
   455.40         3.8884
   455.54         3.8971
   455.68         3.9052
   455.82         3.9113
   455.96         3.9147
   456.10         3.9156
   456.24         3.9146
   456.38         3.9120
   456.52         3.9087
   456.66         3.9053
   456.80         3.9025
   456.94         3.9006
   457.08         3.8998
   457.22         3.8996
   457.36         3.8991
   457.50         3.8969
   457.64         3.8922
   457.78         3.8844
   457.92         3.8736
   458.06         3.8600
   458.20         3.8449
   458.34         3.8298
   458.48         3.8167
   458.62         3.8067
   458.76         3.8004
   458.90         3.7973
   459.04         3.7972
   459.18         3.7998
   459.32         3.8046
   459.46         3.8103
   459.60         3.8154
   459.74         3.8186
   459.88         3.8191
   460.02         3.8164
   460.16         3.8104
   460.30         3.8013
   460.44         3.7901
   460.58         3.7778
   460.72         3.7656
   460.86         3.7544
   461.00         3.7453
   461.14         3.7383
   461.28         3.7330
   461.42         3.7290
   461.56         3.7260
   461.70         3.7238
   461.84         3.7220
   461.98         3.7200
   462.12         3.7179
   462.26         3.7156
   462.40         3.7130
   462.54         3.7105
   462.68         3.7080
   462.82         3.7055
   462.96         3.7031
   463.10         3.7009
   463.24         3.6992
   463.38         3.6980
   463.52         3.6971
   463.66         3.6961
   463.80         3.6947
   463.94         3.6927
   464.08         3.6900
   464.22         3.6870
   464.36         3.6839
   464.50         3.6814
   464.64         3.6791
   464.78         3.6767
   464.92         3.6733
   465.06         3.6692
   465.20         3.6648
   465.34         3.6600
   465.48         3.6548
   465.62         3.6492
   465.76         3.6434
   465.90         3.6378
   466.04         3.6325
   466.18         3.6278
   466.32         3.6238
   466.46         3.6207
   466.60         3.6182
   466.74         3.6161
   466.88         3.6144
   467.02         3.6132
   467.16         3.6130
   467.30         3.6142
   467.44         3.6172
   467.58         3.6222
   467.72         3.6286
   467.86         3.6349
   468.00         3.6395
   468.14         3.6411
   468.28         3.6389
   468.42         3.6326
   468.56         3.6222
   468.70         3.6089
   468.84         3.5939
   468.98         3.5791
   469.12         3.5659
   469.26         3.5555
   469.40         3.5488
   469.54         3.5469
   469.68         3.5507
   469.82         3.5604
   469.96         3.5753
   470.10         3.5936
   470.24         3.6132
   470.38         3.6318
   470.52         3.6476
   470.66         3.6596
   470.80         3.6671
   470.94         3.6696
   471.08         3.6671
   471.22         3.6603
   471.36         3.6504
   471.50         3.6383
   471.64         3.6249
   471.78         3.6112
   471.92         3.5984
   472.06         3.5878
   472.20         3.5803
   472.34         3.5753
   472.48         3.5715
   472.62         3.5666
   472.76         3.5593
   472.90         3.5490
   473.04         3.5361
   473.18         3.5212
   473.32         3.5059
   473.46         3.4916
   473.60         3.4791
   473.74         3.4691
   473.88         3.4623
   474.02         3.4591
   474.16         3.4597
   474.30         3.4637
   474.44         3.4702
   474.58         3.4777
   474.72         3.4844
   474.86         3.4885
   475.00         3.4882
   475.14         3.4830
   475.28         3.4733
   475.42         3.4603
   475.56         3.4453
   475.70         3.4299
   475.84         3.4152
   475.98         3.4022
   476.12         3.3914
   476.26         3.3831
   476.40         3.3781
   476.54         3.3772
   476.68         3.3801
   476.82         3.3855
   476.96         3.3922
   477.10         3.3991
   477.24         3.4054
   477.38         3.4104
   477.52         3.4134
   477.66         3.4141
   477.80         3.4128
   477.94         3.4102
   478.08         3.4074
   478.22         3.4056
   478.36         3.4056
   478.50         3.4074
   478.64         3.4108
   478.78         3.4153
   478.92         3.4199
   479.06         3.4234
   479.20         3.4241
   479.34         3.4208
   479.48         3.4125
   479.62         3.3995
   479.76         3.3826
   479.90         3.3625
   480.04         3.3398
   480.18         3.3153
   480.32         3.2910
   480.46         3.2685
   480.60         3.2498
   480.74         3.2358
   480.88         3.2265
   481.02         3.2210
   481.16         3.2179
   481.30         3.2164
   481.44         3.2157
   481.58         3.2149
   481.72         3.2132
   481.86         3.2099
   482.00         3.2039
   482.14         3.1945
   482.28         3.1808
   482.42         3.1618
   482.56         3.1369
   482.70         3.1061
   482.84         3.0707
   482.98         3.0320
   483.12         2.9911
   483.26         2.9490
   483.40         2.9065
   483.54         2.8645
   483.68         2.8237
   483.82         2.7842
   483.96         2.7451
   484.10         2.7048
   484.24         2.6608
   484.38         2.6110
   484.52         2.5531
   484.66         2.4855
   484.80         2.4073
   484.94         2.3185
   485.08         2.2209
   485.22         2.1178
   485.36         2.0134
   485.50         1.9128
   485.64         1.8214
   485.78         1.7449
   485.92         1.6882
   486.06         1.6550
   486.20         1.6470
   486.34         1.6639
   486.48         1.7040
   486.62         1.7640
   486.76         1.8399
   486.90         1.9269
   487.04         2.0197
   487.18         2.1134
   487.32         2.2042
   487.46         2.2896
   487.60         2.3680
   487.74         2.4390
   487.88         2.5031
   488.02         2.5612
   488.16         2.6142
   488.30         2.6635
   488.44         2.7102
   488.58         2.7546
   488.72         2.7965
   488.86         2.8353
   489.00         2.8707
   489.14         2.9020
   489.28         2.9283
   489.42         2.9493
   489.56         2.9652
   489.70         2.9767
   489.84         2.9851
   489.98         2.9918
   490.12         2.9977
   490.26         3.0035
   490.40         3.0095
   490.54         3.0165
   490.68         3.0248
   490.82         3.0339
   490.96         3.0432
   491.10         3.0518
   491.24         3.0588
   491.38         3.0635
   491.52         3.0658
   491.66         3.0660
   491.80         3.0651
   491.94         3.0639
   492.08         3.0635
   492.22         3.0643
   492.36         3.0662
   492.50         3.0689
   492.64         3.0716
   492.78         3.0737
   492.92         3.0746
   493.06         3.0743
   493.20         3.0729
   493.34         3.0709
   493.48         3.0687
   493.62         3.0672
   493.76         3.0670
   493.90         3.0682
   494.04         3.0709
   494.18         3.0751
   494.32         3.0802
   494.46         3.0851
   494.60         3.0884
   494.74         3.0894
   494.88         3.0876
   495.02         3.0837
   495.16         3.0786
   495.30         3.0731
   495.44         3.0681
   495.58         3.0642
   495.72         3.0619
   495.86         3.0614
   496.00         3.0630
   496.14         3.0663
   496.28         3.0705
   496.42         3.0749
   496.56         3.0788
   496.70         3.0823
   496.84         3.0853
   496.98         3.0874
   497.12         3.0886
   497.26         3.0889
   497.40         3.0884
   497.54         3.0874
   497.68         3.0861
   497.82         3.0846
   497.96         3.0830
   498.10         3.0812
   498.24         3.0795
   498.38         3.0780
   498.52         3.0767
   498.66         3.0751
   498.80         3.0724
   498.94         3.0676
   499.08         3.0607
   499.22         3.0522
   499.36         3.0430
   499.50         3.0338
   499.64         3.0253
   499.78         3.0184
   499.92         3.0136
   500.06         3.0109
   500.20         3.0097
   500.34         3.0095
   500.48         3.0091
   500.62         3.0070
   500.76         3.0024
   500.90         2.9945
   501.04         2.9835
   501.18         2.9697
   501.32         2.9544
   501.46         2.9396
   501.60         2.9272
   501.74         2.9190
   501.88         2.9157
   502.02         2.9170
   502.16         2.9216
   502.30         2.9281
   502.44         2.9351
   502.58         2.9415
   502.72         2.9470
   502.86         2.9513
   503.00         2.9543
   503.14         2.9563
   503.28         2.9574
   503.42         2.9581
   503.56         2.9588
   503.70         2.9597
   503.84         2.9610
   503.98         2.9625
   504.12         2.9636
   504.26         2.9634
   504.40         2.9614
   504.54         2.9576
   504.68         2.9525
   504.82         2.9473
   504.96         2.9436
   505.10         2.9424
   505.24         2.9437
   505.38         2.9469
   505.52         2.9508
   505.66         2.9547
   505.80         2.9581
   505.94         2.9607
   506.08         2.9621
   506.22         2.9622
   506.36         2.9607
   506.50         2.9570
   506.64         2.9506
   506.78         2.9413
   506.92         2.9297
   507.06         2.9172
   507.20         2.9054
   507.34         2.8956
   507.48         2.8886
   507.62         2.8851
   507.76         2.8847
   507.90         2.8872
   508.04         2.8923
   508.18         2.8996
   508.32         2.9086
   508.46         2.9181
   508.60         2.9266
   508.74         2.9322
   508.88         2.9339
   509.02         2.9311
   509.16         2.9245
   509.30         2.9153
   509.44         2.9051
   509.58         2.8951
   509.72         2.8862
   509.86         2.8787
   510.00         2.8728
   510.14         2.8689
   510.28         2.8671
   510.42         2.8675
   510.56         2.8699
   510.70         2.8742
   510.84         2.8796
   510.98         2.8852
   511.12         2.8902
   511.26         2.8940
   511.40         2.8961
   511.54         2.8965
   511.68         2.8951
   511.82         2.8915
   511.96         2.8856
   512.10         2.8774
   512.24         2.8677
   512.38         2.8577
   512.52         2.8488
   512.66         2.8415
   512.80         2.8362
   512.94         2.8329
   513.08         2.8314
   513.22         2.8315
   513.36         2.8325
   513.50         2.8335
   513.64         2.8337
   513.78         2.8328
   513.92         2.8306
   514.06         2.8271
   514.20         2.8222
   514.34         2.8158
   514.48         2.8081
   514.62         2.7995
   514.76         2.7909
   514.90         2.7828
   515.04         2.7759
   515.18         2.7699
   515.32         2.7651
   515.46         2.7616
   515.60         2.7595
   515.74         2.7585
   515.88         2.7579
   516.02         2.7569
   516.16         2.7547
   516.30         2.7511
   516.44         2.7463
   516.58         2.7404
   516.72         2.7337
   516.86         2.7263
   517.00         2.7186
   517.14         2.7109
   517.28         2.7037
   517.42         2.6971
   517.56         2.6912
   517.70         2.6857
   517.84         2.6808
   517.98         2.6766
   518.12         2.6735
   518.26         2.6714
   518.40         2.6705
   518.54         2.6712
   518.68         2.6737
   518.82         2.6778
   518.96         2.6832
   519.10         2.6892
   519.24         2.6949
   519.38         2.6994
   519.52         2.7020
   519.66         2.7024
   519.80         2.7006
   519.94         2.6971
   520.08         2.6924
   520.22         2.6872
   520.36         2.6823
   520.50         2.6782
   520.64         2.6755
   520.78         2.6744
   520.92         2.6749
   521.06         2.6768
   521.20         2.6793
   521.34         2.6815
   521.48         2.6824
   521.62         2.6815
   521.76         2.6784
   521.90         2.6733
   522.04         2.6668
   522.18         2.6592
   522.32         2.6511
   522.46         2.6430
   522.60         2.6355
   522.74         2.6291
   522.88         2.6237
   523.02         2.6190
   523.16         2.6143
   523.30         2.6093
   523.44         2.6036
   523.58         2.5974
   523.72         2.5907
   523.86         2.5833
   524.00         2.5751
   524.14         2.5664
   524.28         2.5581
   524.42         2.5510
   524.56         2.5463
   524.70         2.5443
   524.84         2.5450
   524.98         2.5478
   525.12         2.5524
   525.26         2.5582
   525.40         2.5641
   525.54         2.5688
   525.68         2.5719
   525.82         2.5733
   525.96         2.5736
   526.10         2.5731
   526.24         2.5720
   526.38         2.5704
   526.52         2.5683
   526.66         2.5660
   526.80         2.5636
   526.94         2.5616
   527.08         2.5599
   527.22         2.5581
   527.36         2.5554
   527.50         2.5508
   527.64         2.5441
   527.78         2.5354
   527.92         2.5252
   528.06         2.5145
   528.20         2.5048
   528.34         2.4976
   528.48         2.4937
   528.62         2.4932
   528.76         2.4959
   528.90         2.5012
   529.04         2.5086
   529.18         2.5174
   529.32         2.5272
   529.46         2.5372
   529.60         2.5469
   529.74         2.5557
   529.88         2.5628
   530.02         2.5677
   530.16         2.5702
   530.30         2.5706
   530.44         2.5689
   530.58         2.5658
   530.72         2.5616
   530.86         2.5563
   531.00         2.5501
   531.14         2.5431
   531.28         2.5355
   531.42         2.5280
   531.56         2.5208
   531.70         2.5143
   531.84         2.5079
   531.98         2.5015
   532.12         2.4948
   532.26         2.4882
   532.40         2.4818
   532.54         2.4758
   532.68         2.4702
   532.82         2.4652
   532.96         2.4613
   533.10         2.4590
   533.24         2.4585
   533.38         2.4596
   533.52         2.4617
   533.66         2.4641
   533.80         2.4665
   533.94         2.4687
   534.08         2.4708
   534.22         2.4731
   534.36         2.4754
   534.50         2.4780
   534.64         2.4811
   534.78         2.4847
   534.92         2.4888
   535.06         2.4928
   535.20         2.4962
   535.34         2.4989
   535.48         2.5008
   535.62         2.5017
   535.76         2.5010
   535.90         2.4979
   536.04         2.4921
   536.18         2.4840
   536.32         2.4746
   536.46         2.4645
   536.60         2.4544
   536.74         2.4445
   536.88         2.4351
   537.02         2.4265
   537.16         2.4190
   537.30         2.4130
   537.44         2.4085
   537.58         2.4057
   537.72         2.4050
   537.86         2.4067
   538.00         2.4106
   538.14         2.4159
   538.28         2.4214
   538.42         2.4262
   538.56         2.4298
   538.70         2.4320
   538.84         2.4327
   538.98         2.4317
   539.12         2.4286
   539.26         2.4236
   539.40         2.4166
   539.54         2.4082
   539.68         2.3986
   539.82         2.3886
   539.96         2.3791
   540.10         2.3709
   540.24         2.3646
   540.38         2.3605
   540.52         2.3584
   540.66         2.3581
   540.80         2.3594
   540.94         2.3622
   541.08         2.3660
   541.22         2.3702
   541.36         2.3739
   541.50         2.3766
   541.64         2.3776
   541.78         2.3768
   541.92         2.3740
   542.06         2.3691
   542.20         2.3626
   542.34         2.3556
   542.48         2.3488
   542.62         2.3423
   542.76         2.3362
   542.90         2.3306
   543.04         2.3259
   543.18         2.3225
   543.32         2.3207
   543.46         2.3205
   543.60         2.3214
   543.74         2.3231
   543.88         2.3253
   544.02         2.3281
   544.16         2.3314
   544.30         2.3348
   544.44         2.3376
   544.58         2.3394
   544.72         2.3402
   544.86         2.3402
   545.00         2.3393
   545.14         2.3374
   545.28         2.3348
   545.42         2.3318
   545.56         2.3293
   545.70         2.3276
   545.84         2.3265
   545.98         2.3262
   546.12         2.3265
   546.26         2.3278
   546.40         2.3303
   546.54         2.3337
   546.68         2.3371
   546.82         2.3399
   546.96         2.3419
   547.10         2.3428
   547.24         2.3430
   547.38         2.3423
   547.52         2.3410
   547.66         2.3386
   547.80         2.3351
   547.94         2.3302
   548.08         2.3240
   548.22         2.3167
   548.36         2.3086
   548.50         2.3004
   548.64         2.2930
   548.78         2.2869
   548.92         2.2824
   549.06         2.2794
   549.20         2.2777
   549.34         2.2777
   549.48         2.2796
   549.62         2.2831
   549.76         2.2873
   549.90         2.2911
   550.04         2.2937
   550.18         2.2944
   550.32         2.2930
   550.46         2.2897
   550.60         2.2847
   550.74         2.2786
   550.88         2.2717
   551.02         2.2647
   551.16         2.2581
   551.30         2.2526
   551.44         2.2486
   551.58         2.2461
   551.72         2.2449
   551.86         2.2447
   552.00         2.2453
   552.14         2.2465
   552.28         2.2481
   552.42         2.2504
   552.56         2.2535
   552.70         2.2576
   552.84         2.2625
   552.98         2.2677
   553.12         2.2724
   553.26         2.2755
   553.40         2.2767
   553.54         2.2757
   553.68         2.2726
   553.82         2.2679
   553.96         2.2619
   554.10         2.2550
   554.24         2.2478
   554.38         2.2410
   554.52         2.2358
   554.66         2.2327
   554.80         2.2322
   554.94         2.2340
   555.08         2.2377
   555.22         2.2420
   555.36         2.2461
   555.50         2.2488
   555.64         2.2499
   555.78         2.2490
   555.92         2.2462
   556.06         2.2417
   556.20         2.2359
   556.34         2.2297
   556.48         2.2233
   556.62         2.2170
   556.76         2.2112
   556.90         2.2062
   557.04         2.2020
   557.18         2.1989
   557.32         2.1967
   557.46         2.1954
   557.60         2.1950
   557.74         2.1953
   557.88         2.1962
   558.02         2.1978
   558.16         2.1998
   558.30         2.2015
   558.44         2.2022
   558.58         2.2011
   558.72         2.1979
   558.86         2.1930
   559.00         2.1869
   559.14         2.1802
   559.28         2.1734
   559.42         2.1669
   559.56         2.1613
   559.70         2.1570
   559.84         2.1544
   559.98         2.1537
   560.12         2.1550
   560.26         2.1577
   560.40         2.1609
   560.54         2.1635
   560.68         2.1646
   560.82         2.1633
   560.96         2.1595
   561.10         2.1536
   561.24         2.1462
   561.38         2.1380
   561.52         2.1296
   561.66         2.1212
   561.80         2.1127
   561.94         2.1046
   562.08         2.0973
   562.22         2.0914
   562.36         2.0875
   562.50         2.0859
   562.64         2.0864
   562.78         2.0888
   562.92         2.0928
   563.06         2.0980
   563.20         2.1042
   563.34         2.1108
   563.48         2.1175
   563.62         2.1237
   563.76         2.1286
   563.90         2.1317
   564.04         2.1326
   564.18         2.1313
   564.32         2.1283
   564.46         2.1239
   564.60         2.1186
   564.74         2.1127
   564.88         2.1067
   565.02         2.1005
   565.16         2.0942
   565.30         2.0879
   565.44         2.0817
   565.58         2.0757
   565.72         2.0699
   565.86         2.0644
   566.00         2.0594
   566.14         2.0551
   566.28         2.0521
   566.42         2.0507
   566.56         2.0513
   566.70         2.0541
   566.84         2.0589
   566.98         2.0651
   567.12         2.0717
   567.26         2.0781
   567.40         2.0833
   567.54         2.0871
   567.68         2.0895
   567.82         2.0906
   567.96         2.0908
   568.10         2.0905
   568.24         2.0902
   568.38         2.0903
   568.52         2.0908
   568.66         2.0916
   568.80         2.0926
   568.94         2.0935
   569.08         2.0939
   569.22         2.0935
   569.36         2.0918
   569.50         2.0883
   569.64         2.0829
   569.78         2.0754
   569.92         2.0661
   570.06         2.0559
   570.20         2.0459
   570.34         2.0368
   570.48         2.0288
   570.62         2.0223
   570.76         2.0174
   570.90         2.0142
   571.04         2.0123
   571.18         2.0112
   571.32         2.0107
   571.46         2.0105
   571.60         2.0105
   571.74         2.0103
   571.88         2.0095
   572.02         2.0082
   572.16         2.0064
   572.30         2.0044
   572.44         2.0025
   572.58         2.0013
   572.72         2.0007
   572.86         2.0007
   573.00         2.0010
   573.14         2.0013
   573.28         2.0015
   573.42         2.0012
   573.56         2.0000
   573.70         1.9981
   573.84         1.9952
   573.98         1.9916
   574.12         1.9874
   574.26         1.9825
   574.40         1.9772
   574.54         1.9720
   574.68         1.9677
   574.82         1.9648
   574.96         1.9644
   575.10         1.9668
   575.24         1.9725
   575.38         1.9813
   575.52         1.9929
   575.66         2.0064
   575.80         2.0206
   575.94         2.0340
   576.08         2.0454
   576.22         2.0539
   576.36         2.0586
   576.50         2.0590
   576.64         2.0550
   576.78         2.0467
   576.92         2.0346
   577.06         2.0193
   577.20         2.0019
   577.34         1.9840
   577.48         1.9671
   577.62         1.9526
   577.76         1.9413
   577.90         1.9337
   578.04         1.9297
   578.18         1.9286
   578.32         1.9297
   578.46         1.9319
   578.60         1.9342
   578.74         1.9355
   578.88         1.9353
   579.02         1.9332
   579.16         1.9292
   579.30         1.9240
   579.44         1.9184
   579.58         1.9133
   579.72         1.9099
   579.86         1.9092
   580.00         1.9116
   580.14         1.9171
   580.28         1.9249
   580.42         1.9339
   580.56         1.9427
   580.70         1.9502
   580.84         1.9554
   580.98         1.9580
   581.12         1.9582
   581.26         1.9561
   581.40         1.9526
   581.54         1.9484
   581.68         1.9446
   581.82         1.9420
   581.96         1.9412
   582.10         1.9420
   582.24         1.9443
   582.38         1.9475
   582.52         1.9511
   582.66         1.9547
   582.80         1.9581
   582.94         1.9609
   583.08         1.9624
   583.22         1.9624
   583.36         1.9612
   583.50         1.9590
   583.64         1.9564
   583.78         1.9540
   583.92         1.9522
   584.06         1.9513
   584.20         1.9516
   584.34         1.9529
   584.48         1.9546
   584.62         1.9563
   584.76         1.9576
   584.90         1.9584
   585.04         1.9589
   585.18         1.9591
   585.32         1.9587
   585.46         1.9579
   585.60         1.9563
   585.74         1.9542
   585.88         1.9518
   586.02         1.9493
   586.16         1.9464
   586.30         1.9429
   586.44         1.9388
   586.58         1.9342
   586.72         1.9291
   586.86         1.9238
   587.00         1.9185
   587.14         1.9137
   587.28         1.9095
   587.42         1.9062
   587.56         1.9029
   587.70         1.8988
   587.84         1.8929
   587.98         1.8847
   588.12         1.8742
   588.26         1.8614
   588.40         1.8462
   588.54         1.8291
   588.68         1.8112
   588.82         1.7941
   588.96         1.7796
   589.10         1.7690
   589.24         1.7631
   589.38         1.7621
   589.52         1.7660
   589.66         1.7740
   589.80         1.7851
   589.94         1.7979
   590.08         1.8110
   590.22         1.8232
   590.36         1.8337
   590.50         1.8425
   590.64         1.8498
   590.78         1.8557
   590.92         1.8604
   591.06         1.8640
   591.20         1.8673
   591.34         1.8710
   591.48         1.8749
   591.62         1.8786
   591.76         1.8819
   591.90         1.8842
   592.04         1.8855
   592.18         1.8852
   592.32         1.8830
   592.46         1.8791
   592.60         1.8739
   592.74         1.8682
   592.88         1.8623
   593.02         1.8567
   593.16         1.8514
   593.30         1.8464
   593.44         1.8411
   593.58         1.8351
   593.72         1.8284
   593.86         1.8214
   594.00         1.8144
   594.14         1.8079
   594.28         1.8022
   594.42         1.7977
   594.56         1.7945
   594.70         1.7925
   594.84         1.7913
   594.98         1.7906
   595.12         1.7903
   595.26         1.7903
   595.40         1.7905
   595.54         1.7907
   595.68         1.7908
   595.82         1.7907
   595.96         1.7904
   596.10         1.7901
   596.24         1.7902
   596.38         1.7913
   596.52         1.7935
   596.66         1.7965
   596.80         1.7997
   596.94         1.8028
   597.08         1.8055
   597.22         1.8076
   597.36         1.8093
   597.50         1.8108
   597.64         1.8121
   597.78         1.8135
   597.92         1.8150
   598.06         1.8165
   598.20         1.8176
   598.34         1.8182
   598.48         1.8181
   598.62         1.8176
   598.76         1.8165
   598.90         1.8151
   599.04         1.8133
   599.18         1.8109
   599.32         1.8081
   599.46         1.8051
   599.60         1.8023
   599.74         1.7997
   599.88         1.7974
   600.02         1.7951
   600.16         1.7928
   600.30         1.7903
   600.44         1.7877
   600.58         1.7852
   600.72         1.7830
   600.86         1.7812
   601.00         1.7800
   601.14         1.7795
   601.28         1.7800
   601.42         1.7816
   601.56         1.7839
   601.70         1.7866
   601.84         1.7894
   601.98         1.7920
   602.12         1.7942
   602.26         1.7957
   602.40         1.7964
   602.54         1.7960
   602.68         1.7942
   602.82         1.7909
   602.96         1.7858
   603.10         1.7791
   603.24         1.7711
   603.38         1.7624
   603.52         1.7533
   603.66         1.7443
   603.80         1.7356
   603.94         1.7274
   604.08         1.7197
   604.22         1.7129
   604.36         1.7075
   604.50         1.7040
   604.64         1.7026
   604.78         1.7034
   604.92         1.7060
   605.06         1.7097
   605.20         1.7140
   605.34         1.7179
   605.48         1.7211
   605.62         1.7234
   605.76         1.7250
   605.90         1.7259
   606.04         1.7262
   606.18         1.7259
   606.32         1.7250
   606.46         1.7237
   606.60         1.7221
   606.74         1.7203
   606.88         1.7182
   607.02         1.7155
   607.16         1.7121
   607.30         1.7078
   607.44         1.7025
   607.58         1.6966
   607.72         1.6905
   607.86         1.6846
   608.00         1.6793
   608.14         1.6752
   608.28         1.6724
   608.42         1.6712
   608.56         1.6713
   608.70         1.6726
   608.84         1.6749
   608.98         1.6779
   609.12         1.6811
   609.26         1.6839
   609.40         1.6859
   609.54         1.6870
   609.68         1.6874
   609.82         1.6874
   609.96         1.6874
   610.10         1.6876
   610.24         1.6880
   610.38         1.6886
   610.52         1.6893
   610.66         1.6900
   610.80         1.6908
   610.94         1.6914
   611.08         1.6918
   611.22         1.6919
   611.36         1.6916
   611.50         1.6905
   611.64         1.6883
   611.78         1.6853
   611.92         1.6818
   612.06         1.6782
   612.20         1.6752
   612.34         1.6735
   612.48         1.6737
   612.62         1.6761
   612.76         1.6805
   612.90         1.6864
   613.04         1.6933
   613.18         1.7006
   613.32         1.7073
   613.46         1.7126
   613.60         1.7155
   613.74         1.7153
   613.88         1.7119
   614.02         1.7056
   614.16         1.6972
   614.30         1.6873
   614.44         1.6766
   614.58         1.6659
   614.72         1.6557
   614.86         1.6469
   615.00         1.6399
   615.14         1.6348
   615.28         1.6314
   615.42         1.6297
   615.56         1.6293
   615.70         1.6298
   615.84         1.6310
   615.98         1.6323
   616.12         1.6338
   616.26         1.6358
   616.40         1.6388
   616.54         1.6431
   616.68         1.6486
   616.82         1.6548
   616.96         1.6611
   617.10         1.6667
   617.24         1.6713
   617.38         1.6742
   617.52         1.6750
   617.66         1.6734
   617.80         1.6693
   617.94         1.6633
   618.08         1.6562
   618.22         1.6486
   618.36         1.6416
   618.50         1.6364
   618.64         1.6344
   618.78         1.6359
   618.92         1.6410
   619.06         1.6488
   619.20         1.6582
   619.34         1.6680
   619.48         1.6766
   619.62         1.6828
   619.76         1.6861
   619.90         1.6860
   620.04         1.6825
   620.18         1.6761
   620.32         1.6680
   620.46         1.6598
   620.60         1.6525
   620.74         1.6466
   620.88         1.6422
   621.02         1.6390
   621.16         1.6365
   621.30         1.6339
   621.44         1.6303
   621.58         1.6249
   621.72         1.6178
   621.86         1.6094
   622.00         1.6000
   622.14         1.5903
   622.28         1.5810
   622.42         1.5729
   622.56         1.5667
   622.70         1.5630
   622.84         1.5620
   622.98         1.5635
   623.12         1.5668
   623.26         1.5710
   623.40         1.5751
   623.54         1.5786
   623.68         1.5809
   623.82         1.5819
   623.96         1.5821
   624.10         1.5818
   624.24         1.5816
   624.38         1.5818
   624.52         1.5824
   624.66         1.5832
   624.80         1.5843
   624.94         1.5861
   625.08         1.5887
   625.22         1.5921
   625.36         1.5958
   625.50         1.5993
   625.64         1.6024
   625.78         1.6044
   625.92         1.6050
   626.06         1.6038
   626.20         1.6010
   626.34         1.5970
   626.48         1.5920
   626.62         1.5858
   626.76         1.5782
   626.90         1.5691
   627.04         1.5586
   627.18         1.5472
   627.32         1.5357
   627.46         1.5250
   627.60         1.5160
   627.74         1.5093
   627.88         1.5051
   628.02         1.5039
   628.16         1.5056
   628.30         1.5098
   628.44         1.5162
   628.58         1.5243
   628.72         1.5332
   628.86         1.5421
   629.00         1.5497
   629.14         1.5548
   629.28         1.5569
   629.42         1.5560
   629.56         1.5526
   629.70         1.5474
   629.84         1.5412
   629.98         1.5349
   630.12         1.5291
   630.26         1.5239
   630.40         1.5196
   630.54         1.5161
   630.68         1.5131
   630.82         1.5106
   630.96         1.5085
   631.10         1.5066
   631.24         1.5050
   631.38         1.5034
   631.52         1.5021
   631.66         1.5008
   631.80         1.4998
   631.94         1.4990
   632.08         1.4984
   632.22         1.4977
   632.36         1.4970
   632.50         1.4962
   632.64         1.4951
   632.78         1.4938
   632.92         1.4925
   633.06         1.4914
   633.20         1.4909
   633.34         1.4909
   633.48         1.4917
   633.62         1.4930
   633.76         1.4948
   633.90         1.4965
   634.04         1.4978
   634.18         1.4987
   634.32         1.4991
   634.46         1.4989
   634.60         1.4983
   634.74         1.4974
   634.88         1.4964
   635.02         1.4954
   635.16         1.4945
   635.30         1.4938
   635.44         1.4934
   635.58         1.4936
   635.72         1.4945
   635.86         1.4958
   636.00         1.4972
   636.14         1.4982
   636.28         1.4986
   636.42         1.4981
   636.56         1.4969
   636.70         1.4953
   636.84         1.4936
   636.98         1.4921
   637.12         1.4907
   637.26         1.4894
   637.40         1.4883
   637.54         1.4872
   637.68         1.4861
   637.82         1.4849
   637.96         1.4834
   638.10         1.4817
   638.24         1.4792
   638.38         1.4757
   638.52         1.4710
   638.66         1.4653
   638.80         1.4594
   638.94         1.4537
   639.08         1.4489
   639.22         1.4455
   639.36         1.4439
   639.50         1.4441
   639.64         1.4459
   639.78         1.4489
   639.92         1.4529
   640.06         1.4575
   640.20         1.4628
   640.34         1.4682
   640.48         1.4735
   640.62         1.4780
   640.76         1.4815
   640.90         1.4836
   641.04         1.4842
   641.18         1.4837
   641.32         1.4823
   641.46         1.4806
   641.60         1.4785
   641.74         1.4762
   641.88         1.4736
   642.02         1.4708
   642.16         1.4677
   642.30         1.4646
   642.44         1.4618
   642.58         1.4592
   642.72         1.4571
   642.86         1.4556
   643.00         1.4547
   643.14         1.4542
   643.28         1.4542
   643.42         1.4543
   643.56         1.4540
   643.70         1.4529
   643.84         1.4508
   643.98         1.4476
   644.12         1.4434
   644.26         1.4384
   644.40         1.4328
   644.54         1.4275
   644.68         1.4229
   644.82         1.4193
   644.96         1.4170
   645.10         1.4161
   645.24         1.4169
   645.38         1.4192
   645.52         1.4229
   645.66         1.4271
   645.80         1.4312
   645.94         1.4344
   646.08         1.4359
   646.22         1.4355
   646.36         1.4336
   646.50         1.4303
   646.64         1.4262
   646.78         1.4214
   646.92         1.4161
   647.06         1.4104
   647.20         1.4047
   647.34         1.3995
   647.48         1.3954
   647.62         1.3928
   647.76         1.3920
   647.90         1.3927
   648.04         1.3947
   648.18         1.3972
   648.32         1.3994
   648.46         1.4006
   648.60         1.4008
   648.74         1.3999
   648.88         1.3986
   649.02         1.3972
   649.16         1.3962
   649.30         1.3959
   649.44         1.3962
   649.58         1.3974
   649.72         1.3993
   649.86         1.4018
   650.00         1.4046
   650.14         1.4070
   650.28         1.4084
   650.42         1.4082
   650.56         1.4062
   650.70         1.4021
   650.84         1.3961
   650.98         1.3889
   651.12         1.3812
   651.26         1.3737
   651.40         1.3670
   651.54         1.3611
   651.68         1.3560
   651.82         1.3513
   651.96         1.3464
   652.10         1.3413
   652.24         1.3358
   652.38         1.3302
   652.52         1.3248
   652.66         1.3198
   652.80         1.3152
   652.94         1.3111
   653.08         1.3075
   653.22         1.3041
   653.36         1.3005
   653.50         1.2962
   653.64         1.2908
   653.78         1.2836
   653.92         1.2743
   654.06         1.2627
   654.20         1.2486
   654.34         1.2321
   654.48         1.2134
   654.62         1.1926
   654.76         1.1701
   654.90         1.1461
   655.04         1.1205
   655.18         1.0929
   655.32         1.0637
   655.46         1.0338
   655.60         1.0046
   655.74         0.9775
   655.88         0.9540
   656.02         0.9355
   656.16         0.9234
   656.30         0.9188
   656.44         0.9220
   656.58         0.9329
   656.72         0.9508
   656.86         0.9746
   657.00         1.0027
   657.14         1.0335
   657.28         1.0653
   657.42         1.0963
   657.56         1.1252
   657.70         1.1511
   657.84         1.1742
   657.98         1.1949
   658.12         1.2137
   658.26         1.2307
   658.40         1.2460
   658.54         1.2596
   658.68         1.2720
   658.82         1.2834
   658.96         1.2941
   659.10         1.3038
   659.24         1.3125
   659.38         1.3199
   659.52         1.3261
   659.66         1.3309
   659.80         1.3342
   659.94         1.3357
   660.08         1.3358
   660.22         1.3349
   660.36         1.3336
   660.50         1.3326
   660.64         1.3323
   660.78         1.3328
   660.92         1.3343
   661.06         1.3367
   661.20         1.3402
   661.34         1.3447
   661.48         1.3498
   661.62         1.3552
   661.76         1.3601
   661.90         1.3641
   662.04         1.3667
   662.18         1.3674
   662.32         1.3661
   662.46         1.3626
   662.60         1.3573
   662.74         1.3503
   662.88         1.3424
   663.02         1.3343
   663.16         1.3266
   663.30         1.3198
   663.44         1.3140
   663.58         1.3095
   663.72         1.3066
   663.86         1.3052
   664.00         1.3049
   664.14         1.3050
   664.28         1.3053
   664.42         1.3051
   664.56         1.3044
   664.70         1.3032
   664.84         1.3015
   664.98         1.2994
   665.12         1.2971
   665.26         1.2944
   665.40         1.2914
   665.54         1.2881
   665.68         1.2846
   665.82         1.2807
   665.96         1.2765
   666.10         1.2719
   666.24         1.2670
   666.38         1.2619
   666.52         1.2570
   666.66         1.2525
   666.80         1.2490
   666.94         1.2467
   667.08         1.2456
   667.22         1.2459
   667.36         1.2471
   667.50         1.2491
   667.64         1.2516
   667.78         1.2544
   667.92         1.2570
   668.06         1.2594
   668.20         1.2616
   668.34         1.2638
   668.48         1.2655
   668.62         1.2667
   668.76         1.2669
   668.90         1.2665
   669.04         1.2656
   669.18         1.2644
   669.32         1.2632
   669.46         1.2623
   669.60         1.2620
   669.74         1.2623
   669.88         1.2633
   670.02         1.2648
   670.16         1.2670
   670.30         1.2695
   670.44         1.2722
   670.58         1.2745
   670.72         1.2760
   670.86         1.2763
   671.00         1.2752
   671.14         1.2729
   671.28         1.2696
   671.42         1.2660
   671.56         1.2625
   671.70         1.2595
   671.84         1.2570
   671.98         1.2549
   672.12         1.2532
   672.26         1.2516
   672.40         1.2499
   672.54         1.2483
   672.68         1.2468
   672.82         1.2452
   672.96         1.2435
   673.10         1.2415
   673.24         1.2391
   673.38         1.2367
   673.52         1.2346
   673.66         1.2332
   673.80         1.2326
   673.94         1.2331
   674.08         1.2343
   674.22         1.2360
   674.36         1.2382
   674.50         1.2405
   674.64         1.2432
   674.78         1.2461
   674.92         1.2490
   675.06         1.2511
   675.20         1.2521
   675.34         1.2515
   675.48         1.2490
   675.62         1.2448
   675.76         1.2394
   675.90         1.2332
   676.04         1.2269
   676.18         1.2209
   676.32         1.2156
   676.46         1.2111
   676.60         1.2076
   676.74         1.2050
   676.88         1.2035
   677.02         1.2032
   677.16         1.2037
   677.30         1.2049
   677.44         1.2062
   677.58         1.2074
   677.72         1.2081
   677.86         1.2085
   678.00         1.2086
   678.14         1.2087
   678.28         1.2090
   678.42         1.2098
   678.56         1.2111
   678.70         1.2128
   678.84         1.2147
   678.98         1.2169
   679.12         1.2195
   679.26         1.2227
   679.40         1.2264
   679.54         1.2308
   679.68         1.2355
   679.82         1.2402
   679.96         1.2444
   680.10         1.2477
   680.24         1.2496
   680.38         1.2500
   680.52         1.2491
   680.66         1.2472
   680.80         1.2448
   680.94         1.2420
   681.08         1.2390
   681.22         1.2360
   681.36         1.2332
   681.50         1.2306
   681.64         1.2284
   681.78         1.2263
   681.92         1.2245
   682.06         1.2229
   682.20         1.2213
   682.34         1.2196
   682.48         1.2172
   682.62         1.2142
   682.76         1.2107
   682.90         1.2070
   683.04         1.2036
   683.18         1.2008
   683.32         1.1989
   683.46         1.1976
   683.60         1.1968
   683.74         1.1963
   683.88         1.1960
   684.02         1.1957
   684.16         1.1954
   684.30         1.1955
   684.44         1.1965
   684.58         1.1985
   684.72         1.2012
   684.86         1.2041
   685.00         1.2067
   685.14         1.2087
   685.28         1.2100
   685.42         1.2102
   685.56         1.2087
   685.70         1.2045
   685.84         1.1964
   685.98         1.1834
   686.12         1.1650
   686.26         1.1414
   686.40         1.1130
   686.54         1.0811
   686.68         1.0474
   686.82         1.0140
   686.96         0.9834
   687.10         0.9573
   687.24         0.9375
   687.38         0.9250
   687.52         0.9202
   687.66         0.9229
   687.80         0.9320
   687.94         0.9458
   688.08         0.9622
   688.22         0.9793
   688.36         0.9953
   688.50         1.0096
   688.64         1.0220
   688.78         1.0324
   688.92         1.0410
   689.06         1.0482
   689.20         1.0545
   689.34         1.0603
   689.48         1.0657
   689.62         1.0708
   689.76         1.0755
   689.90         1.0797
   690.04         1.0832
   690.18         1.0858
   690.32         1.0876
   690.46         1.0888
   690.60         1.0898
   690.74         1.0909
   690.88         1.0924
   691.02         1.0944
   691.16         1.0967
   691.30         1.0993
   691.44         1.1018
   691.58         1.1040
   691.72         1.1055
   691.86         1.1064
   692.00         1.1066
   692.14         1.1065
   692.28         1.1063
   692.42         1.1063
   692.56         1.1064
   692.70         1.1067
   692.84         1.1071
   692.98         1.1074
   693.12         1.1073
   693.26         1.1066
   693.40         1.1052
   693.54         1.1033
   693.68         1.1009
   693.82         1.0981
   693.96         1.0955
   694.10         1.0931
   694.24         1.0913
   694.38         1.0901
   694.52         1.0899
   694.66         1.0907
   694.80         1.0927
   694.94         1.0957
   695.08         1.0997
   695.22         1.1043
   695.36         1.1093
   695.50         1.1144
   695.64         1.1192
   695.78         1.1238
   695.92         1.1288
   696.06         1.1346
   696.20         1.1414
   696.34         1.1488
   696.48         1.1564
   696.62         1.1637
   696.76         1.1700
   696.90         1.1749
   697.04         1.1782
   697.18         1.1799
   697.32         1.1801
   697.46         1.1789
   697.60         1.1766
   697.74         1.1733
   697.88         1.1694
   698.02         1.1653
   698.16         1.1615
   698.30         1.1583
   698.44         1.1559
   698.58         1.1543
   698.72         1.1533
   698.86         1.1527
   699.00         1.1522
   699.14         1.1518
   699.28         1.1516
   699.42         1.1514
   699.56         1.1510
   699.70         1.1506
   699.84         1.1499
   699.98         1.1491
   700.12         1.1479
   700.26         1.1461
   700.40         1.1438
   700.54         1.1411
   700.68         1.1379
   700.82         1.1340
   700.96         1.1293
   701.10         1.1237
   701.24         1.1177
   701.38         1.1115
   701.52         1.1052
   701.66         1.0990
   701.80         1.0930
   701.94         1.0874
   702.08         1.0826
   702.22         1.0789
   702.36         1.0764
   702.50         1.0752
   702.64         1.0753
   702.78         1.0766
   702.92         1.0787
   703.06         1.0815
   703.20         1.0847
   703.34         1.0877
   703.48         1.0903
   703.62         1.0924
   703.76         1.0939
   703.90         1.0953
   704.04         1.0967
   704.18         1.0983
   704.32         1.1003
   704.46         1.1025
   704.60         1.1054
   704.74         1.1091
   704.88         1.1137
   705.02         1.1191
   705.16         1.1249
   705.30         1.1305
   705.44         1.1356
   705.58         1.1399
   705.72         1.1433
   705.86         1.1460
   706.00         1.1481
   706.14         1.1496
   706.28         1.1505
   706.42         1.1507
   706.56         1.1502
   706.70         1.1490
   706.84         1.1472
   706.98         1.1452
   707.12         1.1432
   707.26         1.1415
   707.40         1.1400
   707.54         1.1386
   707.68         1.1374
   707.82         1.1363
   707.96         1.1352
   708.10         1.1344
   708.24         1.1339
   708.38         1.1335
   708.52         1.1331
   708.66         1.1320
   708.80         1.1301
   708.94         1.1277
   709.08         1.1251
   709.22         1.1227
   709.36         1.1204
   709.50         1.1179
   709.64         1.1149
   709.78         1.1114
   709.92         1.1077
   710.06         1.1042
   710.20         1.1010
   710.34         1.0979
   710.48         1.0950
   710.62         1.0924
   710.76         1.0903
   710.90         1.0886
   711.04         1.0874
   711.18         1.0866
   711.32         1.0869
   711.46         1.0883
   711.60         1.0907
   711.74         1.0934
   711.88         1.0956
   712.02         1.0971
   712.16         1.0979
   712.30         1.0981
   712.44         1.0981
   712.58         1.0983
   712.72         1.0984
   712.86         1.0984
   713.00         1.0981
   713.14         1.0977
   713.28         1.0974
   713.42         1.0975
   713.56         1.0979
   713.70         1.0984
   713.84         1.0987
   713.98         1.0982
   714.12         1.0967
   714.26         1.0940
   714.40         1.0903
   714.54         1.0861
   714.68         1.0823
   714.82         1.0795
   714.96         1.0781
   715.10         1.0784
   715.24         1.0804
   715.38         1.0839
   715.52         1.0884
   715.66         1.0935
   715.80         1.0985
   715.94         1.1023
   716.08         1.1043
   716.22         1.1038
   716.36         1.1004
   716.50         1.0942
   716.64         1.0854
   716.78         1.0746
   716.92         1.0624
   717.06         1.0496
   717.20         1.0368
   717.34         1.0243
   717.48         1.0126
   717.62         1.0020
   717.76         0.9933
   717.90         0.9867
   718.04         0.9824
   718.18         0.9800
   718.32         0.9792
   718.46         0.9797
   718.60         0.9813
   718.74         0.9839
   718.88         0.9870
   719.02         0.9899
   719.16         0.9919
   719.30         0.9926
   719.44         0.9919
   719.58         0.9898
   719.72         0.9867
   719.86         0.9836
   720.00         0.9812
   720.14         0.9811
   720.28         0.9841
   720.42         0.9909
   720.56         1.0015
   720.70         1.0152
   720.84         1.0314
   720.98         1.0491
   721.12         1.0671
   721.26         1.0843
   721.40         1.0994
   721.54         1.1113
   721.68         1.1195
   721.82         1.1238
   721.96         1.1243
   722.10         1.1211
   722.24         1.1145
   722.38         1.1051
   722.52         1.0937
   722.66         1.0812
   722.80         1.0688
   722.94         1.0573
   723.08         1.0471
   723.22         1.0383
   723.36         1.0313
   723.50         1.0262
   723.64         1.0230
   723.78         1.0213
   723.92         1.0207
   724.06         1.0206
   724.20         1.0200
   724.34         1.0183
   724.48         1.0150
   724.62         1.0099
   724.76         1.0032
   724.90         0.9955
   725.04         0.9879
   725.18         0.9811
   725.32         0.9757
   725.46         0.9720
   725.60         0.9704
   725.74         0.9713
   725.88         0.9752
   726.02         0.9822
   726.16         0.9919
   726.30         1.0034
   726.44         1.0154
   726.58         1.0264
   726.72         1.0354
   726.86         1.0416
   727.00         1.0452
   727.14         1.0461
   727.28         1.0447
   727.42         1.0417
   727.56         1.0379
   727.70         1.0340
   727.84         1.0304
   727.98         1.0277
   728.12         1.0263
   728.26         1.0262
   728.40         1.0271
   728.54         1.0283
   728.68         1.0290
   728.82         1.0287
   728.96         1.0270
   729.10         1.0241
   729.24         1.0202
   729.38         1.0163
   729.52         1.0129
   729.66         1.0106
   729.80         1.0094
   729.94         1.0091
   730.08         1.0089
   730.22         1.0084
   730.36         1.0073
   730.50         1.0062
   730.64         1.0053
   730.78         1.0048
   730.92         1.0047
   731.06         1.0051
   731.20         1.0060
   731.34         1.0076
   731.48         1.0097
   731.62         1.0118
   731.76         1.0134
   731.90         1.0138
   732.04         1.0124
   732.18         1.0089
   732.32         1.0031
   732.46         0.9951
   732.60         0.9854
   732.74         0.9749
   732.88         0.9647
   733.02         0.9558
   733.16         0.9490
   733.30         0.9442
   733.44         0.9415
   733.58         0.9409
   733.72         0.9422
   733.86         0.9448
   734.00         0.9482
   734.14         0.9516
   734.28         0.9547
   734.42         0.9572
   734.56         0.9592
   734.70         0.9606
   734.84         0.9617
   734.98         0.9627
   735.12         0.9637
   735.26         0.9645
   735.40         0.9653
   735.54         0.9663
   735.68         0.9678
   735.82         0.9698
   735.96         0.9723
   736.10         0.9749
   736.24         0.9773
   736.38         0.9795
   736.52         0.9815
   736.66         0.9833
   736.80         0.9851
   736.94         0.9870
   737.08         0.9888
   737.22         0.9906
   737.36         0.9924
   737.50         0.9945
   737.64         0.9973
   737.78         1.0009
   737.92         1.0056
   738.06         1.0112
   738.20         1.0175
   738.34         1.0240
   738.48         1.0297
   738.62         1.0336
   738.76         1.0352
   738.90         1.0342
   739.04         1.0309
   739.18         1.0256
   739.32         1.0184
   739.46         1.0098
   739.60         1.0001
   739.74         0.9898
   739.88         0.9794
   740.02         0.9695
   740.16         0.9608
   740.30         0.9534
   740.44         0.9474
   740.58         0.9430
   740.72         0.9404
   740.86         0.9399
   741.00         0.9419
   741.14         0.9462
   741.28         0.9529
   741.42         0.9617
   741.56         0.9721
   741.70         0.9832
   741.84         0.9939
   741.98         1.0034
   742.12         1.0111
   742.26         1.0168
   742.40         1.0206
   742.54         1.0231
   742.68         1.0247
   742.82         1.0255
   742.96         1.0255
   743.10         1.0247
   743.24         1.0231
   743.38         1.0206
   743.52         1.0168
   743.66         1.0111
   743.80         1.0034
   743.94         0.9939
   744.08         0.9832
   744.22         0.9721
