# File FEIGE28
# Wavelength [nm]    Normalized Amplitude
   349.70         1.9420
   349.84         1.9408
   349.98         1.9416
   350.12         1.9437
   350.26         1.9463
   350.40         1.9487
   350.54         1.9499
   350.68         1.9499
   350.82         1.9491
   350.96         1.9482
   351.10         1.9477
   351.24         1.9482
   351.38         1.9491
   351.52         1.9499
   351.66         1.9499
   351.80         1.9487
   351.94         1.9463
   352.08         1.9437
   352.22         1.9416
   352.36         1.9408
   352.50         1.9420
   352.64         1.9460
   352.78         1.9526
   352.92         1.9609
   353.06         1.9696
   353.20         1.9782
   353.34         1.9857
   353.48         1.9907
   353.62         1.9921
   353.76         1.9889
   353.90         1.9809
   354.04         1.9686
   354.18         1.9528
   354.32         1.9346
   354.46         1.9156
   354.60         1.8980
   354.74         1.8832
   354.88         1.8721
   355.02         1.8652
   355.16         1.8619
   355.30         1.8610
   355.44         1.8604
   355.58         1.8585
   355.72         1.8551
   355.86         1.8504
   356.00         1.8438
   356.14         1.8350
   356.28         1.8242
   356.42         1.8122
   356.56         1.8004
   356.70         1.7897
   356.84         1.7811
   356.98         1.7754
   357.12         1.7735
   357.26         1.7750
   357.40         1.7790
   357.54         1.7840
   357.68         1.7883
   357.82         1.7897
   357.96         1.7864
   358.10         1.7784
   358.24         1.7668
   358.38         1.7535
   358.52         1.7398
   358.66         1.7271
   358.80         1.7178
   358.94         1.7140
   359.08         1.7173
   359.22         1.7278
   359.36         1.7445
   359.50         1.7652
   359.64         1.7874
   359.78         1.8081
   359.92         1.8247
   360.06         1.8351
   360.20         1.8381
   360.34         1.8336
   360.48         1.8224
   360.62         1.8061
   360.76         1.7867
   360.90         1.7664
   361.04         1.7478
   361.18         1.7335
   361.32         1.7255
   361.46         1.7253
   361.60         1.7333
   361.74         1.7491
   361.88         1.7716
   362.02         1.7986
   362.16         1.8272
   362.30         1.8544
   362.44         1.8776
   362.58         1.8948
   362.72         1.9045
   362.86         1.9068
   363.00         1.9027
   363.14         1.8940
   363.28         1.8833
   363.42         1.8734
   363.56         1.8671
   363.70         1.8655
   363.84         1.8689
   363.98         1.8767
   364.12         1.8881
   364.26         1.9012
   364.40         1.9144
   364.54         1.9264
   364.68         1.9363
   364.82         1.9440
   364.96         1.9494
   365.10         1.9528
   365.24         1.9542
   365.38         1.9539
   365.52         1.9527
   365.66         1.9514
   365.80         1.9497
   365.94         1.9473
   366.08         1.9437
   366.22         1.9379
   366.36         1.9293
   366.50         1.9184
   366.64         1.9059
   366.78         1.8928
   366.92         1.8794
   367.06         1.8661
   367.20         1.8532
   367.34         1.8408
   367.48         1.8289
   367.62         1.8178
   367.76         1.8081
   367.90         1.8012
   368.04         1.7983
   368.18         1.8001
   368.32         1.8064
   368.46         1.8164
   368.60         1.8293
   368.74         1.8447
   368.88         1.8620
   369.02         1.8813
   369.16         1.9018
   369.30         1.9219
   369.44         1.9395
   369.58         1.9530
   369.72         1.9622
   369.86         1.9674
   370.00         1.9685
   370.14         1.9655
   370.28         1.9586
   370.42         1.9489
   370.56         1.9379
   370.70         1.9276
   370.84         1.9197
   370.98         1.9149
   371.12         1.9130
   371.26         1.9139
   371.40         1.9178
   371.54         1.9246
   371.68         1.9338
   371.82         1.9453
   371.96         1.9591
   372.10         1.9750
   372.24         1.9917
   372.38         2.0069
   372.52         2.0183
   372.66         2.0248
   372.80         2.0275
   372.94         2.0293
   373.08         2.0339
   373.22         2.0445
   373.36         2.0622
   373.50         2.0857
   373.64         2.1126
   373.78         2.1397
   373.92         2.1636
   374.06         2.1807
   374.20         2.1884
   374.34         2.1854
   374.48         2.1730
   374.62         2.1541
   374.76         2.1329
   374.90         2.1149
   375.04         2.1062
   375.18         2.1127
   375.32         2.1382
   375.46         2.1822
   375.60         2.2403
   375.74         2.3045
   375.88         2.3641
   376.02         2.4085
   376.16         2.4301
   376.30         2.4260
   376.44         2.3986
   376.58         2.3552
   376.72         2.3064
   376.86         2.2642
   377.00         2.2398
   377.14         2.2424
   377.28         2.2778
   377.42         2.3478
   377.56         2.4492
   377.70         2.5752
   377.84         2.7155
   377.98         2.8573
   378.12         2.9871
   378.26         3.0926
   378.40         3.1640
   378.54         3.1947
   378.68         3.1825
   378.82         3.1303
   378.96         3.0460
   379.10         2.9404
   379.24         2.8263
   379.38         2.7166
   379.52         2.6238
   379.66         2.5594
   379.80         2.5326
   379.94         2.5493
   380.08         2.6115
   380.22         2.7172
   380.36         2.8611
   380.50         3.0344
   380.64         3.2261
   380.78         3.4240
   380.92         3.6160
   381.06         3.7909
   381.20         3.9396
   381.34         4.0560
   381.48         4.1366
   381.62         4.1801
   381.76         4.1855
   381.90         4.1529
   382.04         4.0826
   382.18         3.9766
   382.32         3.8389
   382.46         3.6752
   382.60         3.4927
   382.74         3.3008
   382.88         3.1097
   383.02         2.9301
   383.16         2.7727
   383.30         2.6477
   383.44         2.5633
   383.58         2.5242
   383.72         2.5320
   383.86         2.5860
   384.00         2.6828
   384.14         2.8164
   384.28         2.9793
   384.42         3.1631
   384.56         3.3594
   384.70         3.5604
   384.84         3.7595
   384.98         3.9507
   385.12         4.1299
   385.26         4.2948
   385.40         4.4441
   385.54         4.5767
   385.68         4.6917
   385.82         4.7882
   385.96         4.8641
   386.10         4.9167
   386.24         4.9434
   386.38         4.9430
   386.52         4.9153
   386.66         4.8605
   386.80         4.7787
   386.94         4.6714
   387.08         4.5402
   387.22         4.3869
   387.36         4.2131
   387.50         4.0206
   387.64         3.8123
   387.78         3.5929
   387.92         3.3685
   388.06         3.1466
   388.20         2.9360
   388.34         2.7459
   388.48         2.5856
   388.62         2.4636
   388.76         2.3866
   388.90         2.3587
   389.04         2.3816
   389.18         2.4537
   389.32         2.5706
   389.46         2.7254
   389.60         2.9096
   389.74         3.1139
   389.88         3.3284
   390.02         3.5434
   390.16         3.7514
   390.30         3.9468
   390.44         4.1266
   390.58         4.2896
   390.72         4.4359
   390.86         4.5659
   391.00         4.6803
   391.14         4.7793
   391.28         4.8630
   391.42         4.9322
   391.56         4.9885
   391.70         5.0338
   391.84         5.0684
   391.98         5.0913
   392.12         5.1002
   392.26         5.0932
   392.40         5.0693
   392.54         5.0295
   392.68         4.9773
   392.82         4.9182
   392.96         4.8593
   393.10         4.8065
   393.24         4.7645
   393.38         4.7364
   393.52         4.7237
   393.66         4.7261
   393.80         4.7415
   393.94         4.7667
   394.08         4.7967
   394.22         4.8245
   394.36         4.8422
   394.50         4.8419
   394.64         4.8179
   394.78         4.7674
   394.92         4.6907
   395.06         4.5907
   395.20         4.4707
   395.34         4.3330
   395.48         4.1786
   395.62         4.0066
   395.76         3.8166
   395.90         3.6096
   396.04         3.3902
   396.18         3.1657
   396.32         2.9456
   396.46         2.7410
   396.60         2.5629
   396.74         2.4211
   396.88         2.3242
   397.02         2.2779
   397.16         2.2857
   397.30         2.3476
   397.44         2.4602
   397.58         2.6164
   397.72         2.8059
   397.86         3.0170
   398.00         3.2368
   398.14         3.4537
   398.28         3.6588
   398.42         3.8466
   398.56         4.0147
   398.70         4.1631
   398.84         4.2933
   398.98         4.4070
   399.12         4.5058
   399.26         4.5908
   399.40         4.6630
   399.54         4.7232
   399.68         4.7731
   399.82         4.8149
   399.96         4.8505
   400.10         4.8812
   400.24         4.9082
   400.38         4.9326
   400.52         4.9558
   400.66         4.9782
   400.80         5.0001
   400.94         5.0214
   401.08         5.0421
   401.22         5.0616
   401.36         5.0795
   401.50         5.0956
   401.64         5.1088
   401.78         5.1183
   401.92         5.1239
   402.06         5.1264
   402.20         5.1269
   402.34         5.1267
   402.48         5.1265
   402.62         5.1260
   402.76         5.1252
   402.90         5.1250
   403.04         5.1268
   403.18         5.1317
   403.32         5.1394
   403.46         5.1488
   403.60         5.1584
   403.74         5.1665
   403.88         5.1718
   404.02         5.1738
   404.16         5.1722
   404.30         5.1669
   404.44         5.1587
   404.58         5.1494
   404.72         5.1402
   404.86         5.1315
   405.00         5.1236
   405.14         5.1170
   405.28         5.1122
   405.42         5.1094
   405.56         5.1079
   405.70         5.1062
   405.84         5.1018
   405.98         5.0925
   406.12         5.0765
   406.26         5.0533
   406.40         5.0233
   406.54         4.9870
   406.68         4.9451
   406.82         4.8979
   406.96         4.8460
   407.10         4.7900
   407.24         4.7305
   407.38         4.6678
   407.52         4.6025
   407.66         4.5355
   407.80         4.4667
   407.94         4.3947
   408.08         4.3172
   408.22         4.2316
   408.36         4.1355
   408.50         4.0265
   408.64         3.9030
   408.78         3.7639
   408.92         3.6091
   409.06         3.4395
   409.20         3.2580
   409.34         3.0700
   409.48         2.8828
   409.62         2.7055
   409.76         2.5477
   409.90         2.4184
   410.04         2.3255
   410.18         2.2748
   410.32         2.2692
   410.46         2.3090
   410.60         2.3911
   410.74         2.5102
   410.88         2.6588
   411.02         2.8282
   411.16         3.0089
   411.30         3.1920
   411.44         3.3696
   411.58         3.5359
   411.72         3.6869
   411.86         3.8205
   412.00         3.9359
   412.14         4.0338
   412.28         4.1160
   412.42         4.1853
   412.56         4.2444
   412.70         4.2965
   412.84         4.3440
   412.98         4.3885
   413.12         4.4304
   413.26         4.4692
   413.40         4.5053
   413.54         4.5391
   413.68         4.5713
   413.82         4.6020
   413.96         4.6311
   414.10         4.6581
   414.24         4.6820
   414.38         4.7022
   414.52         4.7187
   414.66         4.7328
   414.80         4.7466
   414.94         4.7615
   415.08         4.7777
   415.22         4.7948
   415.36         4.8120
   415.50         4.8285
   415.64         4.8430
   415.78         4.8549
   415.92         4.8637
   416.06         4.8694
   416.20         4.8711
   416.34         4.8680
   416.48         4.8595
   416.62         4.8455
   416.76         4.8267
   416.90         4.8043
   417.04         4.7806
   417.18         4.7578
   417.32         4.7376
   417.46         4.7207
   417.60         4.7072
   417.74         4.6967
   417.88         4.6889
   418.02         4.6836
   418.16         4.6807
   418.30         4.6797
   418.44         4.6804
   418.58         4.6820
   418.72         4.6835
   418.86         4.6844
   419.00         4.6850
   419.14         4.6856
   419.28         4.6861
   419.42         4.6866
   419.56         4.6875
   419.70         4.6887
   419.84         4.6899
   419.98         4.6909
   420.12         4.6919
   420.26         4.6922
   420.40         4.6913
   420.54         4.6886
   420.68         4.6839
   420.82         4.6776
   420.96         4.6699
   421.10         4.6610
   421.24         4.6512
   421.38         4.6405
   421.52         4.6294
   421.66         4.6185
   421.80         4.6081
   421.94         4.5984
   422.08         4.5890
   422.22         4.5794
   422.36         4.5694
   422.50         4.5588
   422.64         4.5480
   422.78         4.5373
   422.92         4.5271
   423.06         4.5177
   423.20         4.5102
   423.34         4.5053
   423.48         4.5033
   423.62         4.5036
   423.76         4.5053
   423.90         4.5074
   424.04         4.5092
   424.18         4.5104
   424.32         4.5112
   424.46         4.5112
   424.60         4.5099
   424.74         4.5064
   424.88         4.5006
   425.02         4.4922
   425.16         4.4817
   425.30         4.4692
   425.44         4.4553
   425.58         4.4406
   425.72         4.4252
   425.86         4.4094
   426.00         4.3936
   426.14         4.3782
   426.28         4.3640
   426.42         4.3516
   426.56         4.3417
   426.70         4.3351
   426.84         4.3327
   426.98         4.3350
   427.12         4.3427
   427.26         4.3556
   427.40         4.3737
   427.54         4.3962
   427.68         4.4220
   427.82         4.4492
   427.96         4.4751
   428.10         4.4969
   428.24         4.5119
   428.38         4.5184
   428.52         4.5156
   428.66         4.5040
   428.80         4.4848
   428.94         4.4595
   429.08         4.4299
   429.22         4.3973
   429.36         4.3634
   429.50         4.3303
   429.64         4.2997
   429.78         4.2730
   429.92         4.2508
   430.06         4.2329
   430.20         4.2180
   430.34         4.2044
   430.48         4.1903
   430.62         4.1747
   430.76         4.1569
   430.90         4.1360
   431.04         4.1111
   431.18         4.0806
   431.32         4.0434
   431.46         3.9982
   431.60         3.9441
   431.74         3.8807
   431.88         3.8083
   432.02         3.7277
   432.16         3.6399
   432.30         3.5453
   432.44         3.4435
   432.58         3.3333
   432.72         3.2131
   432.86         3.0818
   433.00         2.9398
   433.14         2.7895
   433.28         2.6351
   433.42         2.4822
   433.56         2.3376
   433.70         2.2089
   433.84         2.1036
   433.98         2.0281
   434.12         1.9870
   434.26         1.9826
   434.40         2.0153
   434.54         2.0828
   434.68         2.1806
   434.82         2.3021
   434.96         2.4391
   435.10         2.5833
   435.24         2.7272
   435.38         2.8654
   435.52         2.9948
   435.66         3.1137
   435.80         3.2218
   435.94         3.3195
   436.08         3.4073
   436.22         3.4860
   436.36         3.5565
   436.50         3.6199
   436.64         3.6772
   436.78         3.7297
   436.92         3.7790
   437.06         3.8262
   437.20         3.8711
   437.34         3.9126
   437.48         3.9498
   437.62         3.9824
   437.76         4.0106
   437.90         4.0347
   438.04         4.0543
   438.18         4.0687
   438.32         4.0775
   438.46         4.0811
   438.60         4.0811
   438.74         4.0791
   438.88         4.0769
   439.02         4.0760
   439.16         4.0774
   439.30         4.0814
   439.44         4.0879
   439.58         4.0959
   439.72         4.1043
   439.86         4.1119
   440.00         4.1186
   440.14         4.1249
   440.28         4.1305
   440.42         4.1344
   440.56         4.1355
   440.70         4.1327
   440.84         4.1261
   440.98         4.1164
   441.12         4.1048
   441.26         4.0921
   441.40         4.0792
   441.54         4.0675
   441.68         4.0587
   441.82         4.0541
   441.96         4.0538
   442.10         4.0574
   442.24         4.0641
   442.38         4.0732
   442.52         4.0836
   442.66         4.0939
   442.80         4.1027
   442.94         4.1086
   443.08         4.1107
   443.22         4.1087
   443.36         4.1029
   443.50         4.0943
   443.64         4.0842
   443.78         4.0743
   443.92         4.0664
   444.06         4.0626
   444.20         4.0641
   444.34         4.0710
   444.48         4.0820
   444.62         4.0959
   444.76         4.1114
   444.90         4.1276
   445.04         4.1431
   445.18         4.1568
   445.32         4.1679
   445.46         4.1755
   445.60         4.1794
   445.74         4.1791
   445.88         4.1753
   446.02         4.1688
   446.16         4.1608
   446.30         4.1523
   446.44         4.1441
   446.58         4.1368
   446.72         4.1297
   446.86         4.1213
   447.00         4.1097
   447.14         4.0937
   447.28         4.0738
   447.42         4.0511
   447.56         4.0270
   447.70         4.0031
   447.84         3.9808
   447.98         3.9616
   448.12         3.9463
   448.26         3.9356
   448.40         3.9298
   448.54         3.9294
   448.68         3.9340
   448.82         3.9429
   448.96         3.9546
   449.10         3.9674
   449.24         3.9797
   449.38         3.9900
   449.52         3.9975
   449.66         4.0019
   449.80         4.0031
   449.94         4.0017
   450.08         3.9978
   450.22         3.9921
   450.36         3.9850
   450.50         3.9771
   450.64         3.9688
   450.78         3.9600
   450.92         3.9511
   451.06         3.9420
   451.20         3.9324
   451.34         3.9222
   451.48         3.9112
   451.62         3.8995
   451.76         3.8877
   451.90         3.8765
   452.04         3.8665
   452.18         3.8582
   452.32         3.8518
   452.46         3.8475
   452.60         3.8454
   452.74         3.8456
   452.88         3.8476
   453.02         3.8509
   453.16         3.8550
   453.30         3.8600
   453.44         3.8661
   453.58         3.8726
   453.72         3.8786
   453.86         3.8828
   454.00         3.8838
   454.14         3.8808
   454.28         3.8727
   454.42         3.8592
   454.56         3.8407
   454.70         3.8179
   454.84         3.7920
   454.98         3.7645
   455.12         3.7371
   455.26         3.7119
   455.40         3.6912
   455.54         3.6771
   455.68         3.6707
   455.82         3.6715
   455.96         3.6779
   456.10         3.6876
   456.24         3.6983
   456.38         3.7082
   456.52         3.7159
   456.66         3.7206
   456.80         3.7221
   456.94         3.7205
   457.08         3.7168
   457.22         3.7118
   457.36         3.7070
   457.50         3.7033
   457.64         3.7015
   457.78         3.7021
   457.92         3.7046
   458.06         3.7084
   458.20         3.7127
   458.34         3.7168
   458.48         3.7199
   458.62         3.7217
   458.76         3.7223
   458.90         3.7218
   459.04         3.7204
   459.18         3.7180
   459.32         3.7148
   459.46         3.7112
   459.60         3.7077
   459.74         3.7048
   459.88         3.7032
   460.02         3.7030
   460.16         3.7036
   460.30         3.7044
   460.44         3.7050
   460.58         3.7047
   460.72         3.7036
   460.86         3.7020
   461.00         3.7005
   461.14         3.6993
   461.28         3.6985
   461.42         3.6977
   461.56         3.6964
   461.70         3.6940
   461.84         3.6895
   461.98         3.6826
   462.12         3.6733
   462.26         3.6618
   462.40         3.6484
   462.54         3.6338
   462.68         3.6189
   462.82         3.6051
   462.96         3.5939
   463.10         3.5864
   463.24         3.5831
   463.38         3.5843
   463.52         3.5899
   463.66         3.5987
   463.80         3.6088
   463.94         3.6181
   464.08         3.6251
   464.22         3.6287
   464.36         3.6281
   464.50         3.6233
   464.64         3.6153
   464.78         3.6057
   464.92         3.5963
   465.06         3.5884
   465.20         3.5826
   465.34         3.5788
   465.48         3.5767
   465.62         3.5759
   465.76         3.5757
   465.90         3.5752
   466.04         3.5737
   466.18         3.5705
   466.32         3.5656
   466.46         3.5591
   466.60         3.5518
   466.74         3.5441
   466.88         3.5366
   467.02         3.5299
   467.16         3.5249
   467.30         3.5219
   467.44         3.5211
   467.58         3.5224
   467.72         3.5258
   467.86         3.5313
   468.00         3.5388
   468.14         3.5481
   468.28         3.5585
   468.42         3.5692
   468.56         3.5791
   468.70         3.5872
   468.84         3.5926
   468.98         3.5948
   469.12         3.5937
   469.26         3.5895
   469.40         3.5825
   469.54         3.5726
   469.68         3.5601
   469.82         3.5455
   469.96         3.5294
   470.10         3.5126
   470.24         3.4956
   470.38         3.4789
   470.52         3.4627
   470.66         3.4471
   470.80         3.4326
   470.94         3.4201
   471.08         3.4101
   471.22         3.4028
   471.36         3.3983
   471.50         3.3968
   471.64         3.3985
   471.78         3.4030
   471.92         3.4094
   472.06         3.4161
   472.20         3.4214
   472.34         3.4242
   472.48         3.4240
   472.62         3.4214
   472.76         3.4175
   472.90         3.4133
   473.04         3.4094
   473.18         3.4064
   473.32         3.4051
   473.46         3.4064
   473.60         3.4102
   473.74         3.4160
   473.88         3.4222
   474.02         3.4273
   474.16         3.4302
   474.30         3.4301
   474.44         3.4261
   474.58         3.4179
   474.72         3.4060
   474.86         3.3915
   475.00         3.3761
   475.14         3.3613
   475.28         3.3479
   475.42         3.3362
   475.56         3.3264
   475.70         3.3190
   475.84         3.3141
   475.98         3.3118
   476.12         3.3114
   476.26         3.3113
   476.40         3.3105
   476.54         3.3082
   476.68         3.3044
   476.82         3.2993
   476.96         3.2932
   477.10         3.2867
   477.24         3.2804
   477.38         3.2746
   477.52         3.2696
   477.66         3.2658
   477.80         3.2637
   477.94         3.2645
   478.08         3.2691
   478.22         3.2772
   478.36         3.2882
   478.50         3.3010
   478.64         3.3146
   478.78         3.3282
   478.92         3.3407
   479.06         3.3514
   479.20         3.3593
   479.34         3.3641
   479.48         3.3656
   479.62         3.3640
   479.76         3.3590
   479.90         3.3499
   480.04         3.3368
   480.18         3.3205
   480.32         3.3028
   480.46         3.2851
   480.60         3.2684
   480.74         3.2535
   480.88         3.2412
   481.02         3.2325
   481.16         3.2280
   481.30         3.2274
   481.44         3.2295
   481.58         3.2323
   481.72         3.2337
   481.86         3.2321
   482.00         3.2262
   482.14         3.2148
   482.28         3.1969
   482.42         3.1719
   482.56         3.1400
   482.70         3.1027
   482.84         3.0619
   482.98         3.0193
   483.12         2.9771
   483.26         2.9372
   483.40         2.9005
   483.54         2.8667
   483.68         2.8344
   483.82         2.8016
   483.96         2.7660
   484.10         2.7254
   484.24         2.6782
   484.38         2.6235
   484.52         2.5601
   484.66         2.4872
   484.80         2.4041
   484.94         2.3109
   485.08         2.2086
   485.22         2.0998
   485.36         1.9882
   485.50         1.8788
   485.64         1.7770
   485.78         1.6878
   485.92         1.6152
   486.06         1.5625
   486.20         1.5322
   486.34         1.5255
   486.48         1.5427
   486.62         1.5827
   486.76         1.6430
   486.90         1.7199
   487.04         1.8085
   487.18         1.9038
   487.32         2.0010
   487.46         2.0964
   487.60         2.1874
   487.74         2.2724
   487.88         2.3507
   488.02         2.4222
   488.16         2.4870
   488.30         2.5460
   488.44         2.6002
   488.58         2.6503
   488.72         2.6971
   488.86         2.7404
   489.00         2.7802
   489.14         2.8161
   489.28         2.8478
   489.42         2.8748
   489.56         2.8970
   489.70         2.9149
   489.84         2.9291
   489.98         2.9403
   490.12         2.9493
   490.26         2.9566
   490.40         2.9631
   490.54         2.9693
   490.68         2.9752
   490.82         2.9811
   490.96         2.9867
   491.10         2.9915
   491.24         2.9944
   491.38         2.9951
   491.52         2.9937
   491.66         2.9909
   491.80         2.9883
   491.94         2.9872
   492.08         2.9891
   492.22         2.9947
   492.36         3.0035
   492.50         3.0144
   492.64         3.0258
   492.78         3.0364
   492.92         3.0452
   493.06         3.0511
   493.20         3.0533
   493.34         3.0516
   493.48         3.0463
   493.62         3.0383
   493.76         3.0291
   493.90         3.0204
   494.04         3.0141
   494.18         3.0110
   494.32         3.0115
   494.46         3.0150
   494.60         3.0203
   494.74         3.0257
   494.88         3.0297
   495.02         3.0313
   495.16         3.0302
   495.30         3.0265
   495.44         3.0208
   495.58         3.0137
   495.72         3.0062
   495.86         2.9992
   496.00         2.9937
   496.14         2.9903
   496.28         2.9895
   496.42         2.9917
   496.56         2.9960
   496.70         3.0009
   496.84         3.0047
   496.98         3.0064
   497.12         3.0049
   497.26         2.9998
   497.40         2.9915
   497.54         2.9809
   497.68         2.9689
   497.82         2.9567
   497.96         2.9457
   498.10         2.9369
   498.24         2.9311
   498.38         2.9290
   498.52         2.9305
   498.66         2.9350
   498.80         2.9415
   498.94         2.9490
   499.08         2.9563
   499.22         2.9619
   499.36         2.9645
   499.50         2.9635
   499.64         2.9589
   499.78         2.9510
   499.92         2.9404
   500.06         2.9277
   500.20         2.9138
   500.34         2.8994
   500.48         2.8850
   500.62         2.8709
   500.76         2.8573
   500.90         2.8445
   501.04         2.8331
   501.18         2.8234
   501.32         2.8161
   501.46         2.8118
   501.60         2.8107
   501.74         2.8124
   501.88         2.8171
   502.02         2.8244
   502.16         2.8338
   502.30         2.8445
   502.44         2.8555
   502.58         2.8657
   502.72         2.8742
   502.86         2.8804
   503.00         2.8839
   503.14         2.8847
   503.28         2.8833
   503.42         2.8808
   503.56         2.8780
   503.70         2.8758
   503.84         2.8742
   503.98         2.8732
   504.12         2.8723
   504.26         2.8709
   504.40         2.8690
   504.54         2.8666
   504.68         2.8636
   504.82         2.8598
   504.96         2.8554
   505.10         2.8501
   505.24         2.8438
   505.38         2.8366
   505.52         2.8286
   505.66         2.8199
   505.80         2.8106
   505.94         2.8008
   506.08         2.7904
   506.22         2.7799
   506.36         2.7698
   506.50         2.7606
   506.64         2.7529
   506.78         2.7472
   506.92         2.7442
   507.06         2.7441
   507.20         2.7467
   507.34         2.7515
   507.48         2.7580
   507.62         2.7654
   507.76         2.7732
   507.90         2.7817
   508.04         2.7908
   508.18         2.8003
   508.32         2.8097
   508.46         2.8181
   508.60         2.8247
   508.74         2.8291
   508.88         2.8307
   509.02         2.8290
   509.16         2.8238
   509.30         2.8159
   509.44         2.8066
   509.58         2.7970
   509.72         2.7881
   509.86         2.7808
   510.00         2.7757
   510.14         2.7732
   510.28         2.7735
   510.42         2.7763
   510.56         2.7806
   510.70         2.7851
   510.84         2.7884
   510.98         2.7892
   511.12         2.7866
   511.26         2.7802
   511.40         2.7705
   511.54         2.7584
   511.68         2.7451
   511.82         2.7320
   511.96         2.7205
   512.10         2.7112
   512.24         2.7042
   512.38         2.6995
   512.52         2.6970
   512.66         2.6965
   512.80         2.6975
   512.94         2.6996
   513.08         2.7023
   513.22         2.7053
   513.36         2.7084
   513.50         2.7116
   513.64         2.7147
   513.78         2.7176
   513.92         2.7205
   514.06         2.7236
   514.20         2.7270
   514.34         2.7306
   514.48         2.7341
   514.62         2.7373
   514.76         2.7396
   514.90         2.7408
   515.04         2.7404
   515.18         2.7383
   515.32         2.7344
   515.46         2.7286
   515.60         2.7206
   515.74         2.7100
   515.88         2.6965
   516.02         2.6804
   516.16         2.6624
   516.30         2.6435
   516.44         2.6250
   516.58         2.6084
   516.72         2.5950
   516.86         2.5854
   517.00         2.5797
   517.14         2.5774
   517.28         2.5778
   517.42         2.5799
   517.56         2.5828
   517.70         2.5860
   517.84         2.5890
   517.98         2.5912
   518.12         2.5923
   518.26         2.5919
   518.40         2.5902
   518.54         2.5878
   518.68         2.5851
   518.82         2.5824
   518.96         2.5801
   519.10         2.5786
   519.24         2.5779
   519.38         2.5778
   519.52         2.5780
   519.66         2.5783
   519.80         2.5789
   519.94         2.5802
   520.08         2.5824
   520.22         2.5855
   520.36         2.5891
   520.50         2.5927
   520.64         2.5959
   520.78         2.5980
   520.92         2.5987
   521.06         2.5982
   521.20         2.5966
   521.34         2.5942
   521.48         2.5911
   521.62         2.5871
   521.76         2.5821
   521.90         2.5762
   522.04         2.5700
   522.18         2.5636
   522.32         2.5574
   522.46         2.5513
   522.60         2.5455
   522.74         2.5399
   522.88         2.5345
   523.02         2.5298
   523.16         2.5262
   523.30         2.5240
   523.44         2.5235
   523.58         2.5244
   523.72         2.5266
   523.86         2.5293
   524.00         2.5321
   524.14         2.5347
   524.28         2.5366
   524.42         2.5378
   524.56         2.5385
   524.70         2.5387
   524.84         2.5384
   524.98         2.5375
   525.12         2.5365
   525.26         2.5357
   525.40         2.5354
   525.54         2.5358
   525.68         2.5368
   525.82         2.5379
   525.96         2.5384
   526.10         2.5378
   526.24         2.5355
   526.38         2.5311
   526.52         2.5246
   526.66         2.5161
   526.80         2.5059
   526.94         2.4947
   527.08         2.4832
   527.22         2.4722
   527.36         2.4623
   527.50         2.4537
   527.64         2.4467
   527.78         2.4420
   527.92         2.4399
   528.06         2.4403
   528.20         2.4433
   528.34         2.4484
   528.48         2.4551
   528.62         2.4628
   528.76         2.4708
   528.90         2.4784
   529.04         2.4849
   529.18         2.4896
   529.32         2.4923
   529.46         2.4927
   529.60         2.4909
   529.74         2.4870
   529.88         2.4811
   530.02         2.4739
   530.16         2.4663
   530.30         2.4591
   530.44         2.4525
   530.58         2.4463
   530.72         2.4403
   530.86         2.4346
   531.00         2.4294
   531.14         2.4249
   531.28         2.4211
   531.42         2.4183
   531.56         2.4167
   531.70         2.4166
   531.84         2.4177
   531.98         2.4198
   532.12         2.4223
   532.26         2.4245
   532.40         2.4259
   532.54         2.4260
   532.68         2.4246
   532.82         2.4213
   532.96         2.4154
   533.10         2.4071
   533.24         2.3969
   533.38         2.3857
   533.52         2.3747
   533.66         2.3653
   533.80         2.3582
   533.94         2.3543
   534.08         2.3541
   534.22         2.3576
   534.36         2.3645
   534.50         2.3742
   534.64         2.3858
   534.78         2.3986
   534.92         2.4113
   535.06         2.4226
   535.20         2.4313
   535.34         2.4366
   535.48         2.4383
   535.62         2.4366
   535.76         2.4319
   535.90         2.4247
   536.04         2.4158
   536.18         2.4064
   536.32         2.3974
   536.46         2.3896
   536.60         2.3832
   536.74         2.3783
   536.88         2.3750
   537.02         2.3731
   537.16         2.3722
   537.30         2.3719
   537.44         2.3718
   537.58         2.3717
   537.72         2.3717
   537.86         2.3719
   538.00         2.3725
   538.14         2.3732
   538.28         2.3736
   538.42         2.3731
   538.56         2.3715
   538.70         2.3688
   538.84         2.3648
   538.98         2.3596
   539.12         2.3531
   539.26         2.3456
   539.40         2.3375
   539.54         2.3294
   539.68         2.3220
   539.82         2.3158
   539.96         2.3116
   540.10         2.3097
   540.24         2.3103
   540.38         2.3132
   540.52         2.3179
   540.66         2.3234
   540.80         2.3289
   540.94         2.3334
   541.08         2.3364
   541.22         2.3376
   541.36         2.3369
   541.50         2.3346
   541.64         2.3306
   541.78         2.3252
   541.92         2.3187
   542.06         2.3121
   542.20         2.3063
   542.34         2.3023
   542.48         2.3008
   542.62         2.3022
   542.76         2.3068
   542.90         2.3139
   543.04         2.3228
   543.18         2.3323
   543.32         2.3411
   543.46         2.3480
   543.60         2.3523
   543.74         2.3535
   543.88         2.3515
   544.02         2.3467
   544.16         2.3397
   544.30         2.3313
   544.44         2.3225
   544.58         2.3140
   544.72         2.3068
   544.86         2.3019
   545.00         2.2993
   545.14         2.2988
   545.28         2.2994
   545.42         2.3000
   545.56         2.2996
   545.70         2.2974
   545.84         2.2932
   545.98         2.2871
   546.12         2.2801
   546.26         2.2730
   546.40         2.2669
   546.54         2.2622
   546.68         2.2589
   546.82         2.2567
   546.96         2.2555
   547.10         2.2551
   547.24         2.2551
   547.38         2.2554
   547.52         2.2557
   547.66         2.2553
   547.80         2.2536
   547.94         2.2505
   548.08         2.2461
   548.22         2.2409
   548.36         2.2352
   548.50         2.2296
   548.64         2.2247
   548.78         2.2205
   548.92         2.2171
   549.06         2.2141
   549.20         2.2118
   549.34         2.2106
   549.48         2.2108
   549.62         2.2123
   549.76         2.2151
   549.90         2.2191
   550.04         2.2237
   550.18         2.2288
   550.32         2.2337
   550.46         2.2381
   550.60         2.2414
   550.74         2.2432
   550.88         2.2434
   551.02         2.2418
   551.16         2.2386
   551.30         2.2340
   551.44         2.2283
   551.58         2.2220
   551.72         2.2157
   551.86         2.2096
   552.00         2.2038
   552.14         2.1982
   552.28         2.1931
   552.42         2.1888
   552.56         2.1856
   552.70         2.1839
   552.84         2.1836
   552.98         2.1845
   553.12         2.1861
   553.26         2.1879
   553.40         2.1898
   553.54         2.1917
   553.68         2.1936
   553.82         2.1953
   553.96         2.1969
   554.10         2.1984
   554.24         2.2001
   554.38         2.2021
   554.52         2.2048
   554.66         2.2085
   554.80         2.2135
   554.94         2.2200
   555.08         2.2274
   555.22         2.2348
   555.36         2.2412
   555.50         2.2454
   555.64         2.2466
   555.78         2.2446
   555.92         2.2395
   556.06         2.2315
   556.20         2.2209
   556.34         2.2084
   556.48         2.1948
   556.62         2.1812
   556.76         2.1683
   556.90         2.1569
   557.04         2.1474
   557.18         2.1400
   557.32         2.1350
   557.46         2.1322
   557.60         2.1314
   557.74         2.1319
   557.88         2.1333
   558.02         2.1351
   558.16         2.1372
   558.30         2.1390
   558.44         2.1403
   558.58         2.1407
   558.72         2.1402
   558.86         2.1391
   559.00         2.1377
   559.14         2.1364
   559.28         2.1351
   559.42         2.1338
   559.56         2.1321
   559.70         2.1301
   559.84         2.1278
   559.98         2.1255
   560.12         2.1235
   560.26         2.1221
   560.40         2.1216
   560.54         2.1222
   560.68         2.1241
   560.82         2.1271
   560.96         2.1311
   561.10         2.1359
   561.24         2.1408
   561.38         2.1452
   561.52         2.1478
   561.66         2.1480
   561.80         2.1452
   561.94         2.1394
   562.08         2.1310
   562.22         2.1209
   562.36         2.1101
   562.50         2.0998
   562.64         2.0907
   562.78         2.0833
   562.92         2.0779
   563.06         2.0745
   563.20         2.0731
   563.34         2.0731
   563.48         2.0742
   563.62         2.0756
   563.76         2.0765
   563.90         2.0767
   564.04         2.0759
   564.18         2.0744
   564.32         2.0725
   564.46         2.0705
   564.60         2.0685
   564.74         2.0664
   564.88         2.0641
   565.02         2.0616
   565.16         2.0588
   565.30         2.0557
   565.44         2.0526
   565.58         2.0495
   565.72         2.0462
   565.86         2.0430
   566.00         2.0398
   566.14         2.0367
   566.28         2.0339
   566.42         2.0316
   566.56         2.0300
   566.70         2.0291
   566.84         2.0287
   566.98         2.0286
   567.12         2.0284
   567.26         2.0280
   567.40         2.0274
   567.54         2.0267
   567.68         2.0257
   567.82         2.0244
   567.96         2.0228
   568.10         2.0208
   568.24         2.0186
   568.38         2.0161
   568.52         2.0135
   568.66         2.0107
   568.80         2.0079
   568.94         2.0052
   569.08         2.0029
   569.22         2.0011
   569.36         1.9993
   569.50         1.9972
   569.64         1.9947
   569.78         1.9919
   569.92         1.9889
   570.06         1.9860
   570.20         1.9835
   570.34         1.9815
   570.48         1.9802
   570.62         1.9797
   570.76         1.9801
   570.90         1.9812
   571.04         1.9828
   571.18         1.9845
   571.32         1.9862
   571.46         1.9878
   571.60         1.9891
   571.74         1.9902
   571.88         1.9909
   572.02         1.9913
   572.16         1.9917
   572.30         1.9921
   572.44         1.9928
   572.58         1.9933
   572.72         1.9936
   572.86         1.9935
   573.00         1.9929
   573.14         1.9914
   573.28         1.9889
   573.42         1.9851
   573.56         1.9799
   573.70         1.9737
   573.84         1.9671
   573.98         1.9608
   574.12         1.9552
   574.26         1.9509
   574.40         1.9480
   574.54         1.9466
   574.68         1.9466
   574.82         1.9480
   574.96         1.9506
   575.10         1.9540
   575.24         1.9580
   575.38         1.9625
   575.52         1.9671
   575.66         1.9713
   575.80         1.9747
   575.94         1.9768
   576.08         1.9776
   576.22         1.9776
   576.36         1.9765
   576.50         1.9744
   576.64         1.9708
   576.78         1.9655
   576.92         1.9584
   577.06         1.9498
   577.20         1.9400
   577.34         1.9296
   577.48         1.9192
   577.62         1.9091
   577.76         1.8999
   577.90         1.8919
   578.04         1.8853
   578.18         1.8802
   578.32         1.8766
   578.46         1.8743
   578.60         1.8735
   578.74         1.8742
   578.88         1.8761
   579.02         1.8790
   579.16         1.8824
   579.30         1.8861
   579.44         1.8904
   579.58         1.8952
   579.72         1.9006
   579.86         1.9064
   580.00         1.9124
   580.14         1.9186
   580.28         1.9247
   580.42         1.9304
   580.56         1.9354
   580.70         1.9393
   580.84         1.9417
   580.98         1.9426
   581.12         1.9416
   581.26         1.9388
   581.40         1.9345
   581.54         1.9290
   581.68         1.9224
   581.82         1.9150
   581.96         1.9073
   582.10         1.8995
   582.24         1.8920
   582.38         1.8848
   582.52         1.8781
   582.66         1.8720
   582.80         1.8665
   582.94         1.8615
   583.08         1.8569
   583.22         1.8530
   583.36         1.8505
   583.50         1.8498
   583.64         1.8515
   583.78         1.8555
   583.92         1.8615
   584.06         1.8685
   584.20         1.8755
   584.34         1.8815
   584.48         1.8857
   584.62         1.8877
   584.76         1.8874
   584.90         1.8852
   585.04         1.8817
   585.18         1.8775
   585.32         1.8733
   585.46         1.8700
   585.60         1.8679
   585.74         1.8672
   585.88         1.8680
   586.02         1.8698
   586.16         1.8721
   586.30         1.8741
   586.44         1.8754
   586.58         1.8758
   586.72         1.8756
   586.86         1.8748
   587.00         1.8734
   587.14         1.8716
   587.28         1.8695
   587.42         1.8670
   587.56         1.8636
   587.70         1.8590
   587.84         1.8525
   587.98         1.8437
   588.12         1.8325
   588.26         1.8192
   588.40         1.8044
   588.54         1.7888
   588.68         1.7733
   588.82         1.7592
   588.96         1.7474
   589.10         1.7388
   589.24         1.7336
   589.38         1.7318
   589.52         1.7334
   589.66         1.7382
   589.80         1.7457
   589.94         1.7546
   590.08         1.7637
   590.22         1.7722
   590.36         1.7794
   590.50         1.7852
   590.64         1.7896
   590.78         1.7929
   590.92         1.7952
   591.06         1.7968
   591.20         1.7977
   591.34         1.7980
   591.48         1.7977
   591.62         1.7968
   591.76         1.7957
   591.90         1.7945
   592.04         1.7935
   592.18         1.7924
   592.32         1.7907
   592.46         1.7879
   592.60         1.7843
   592.74         1.7801
   592.88         1.7762
   593.02         1.7728
   593.16         1.7700
   593.30         1.7676
   593.44         1.7654
   593.58         1.7631
   593.72         1.7608
   593.86         1.7586
   594.00         1.7569
   594.14         1.7561
   594.28         1.7563
   594.42         1.7574
   594.56         1.7589
   594.70         1.7599
   594.84         1.7600
   594.98         1.7590
   595.12         1.7574
   595.26         1.7560
   595.40         1.7552
   595.54         1.7553
   595.68         1.7563
   595.82         1.7582
   595.96         1.7605
   596.10         1.7630
   596.24         1.7657
   596.38         1.7683
   596.52         1.7703
   596.66         1.7712
   596.80         1.7702
   596.94         1.7670
   597.08         1.7615
   597.22         1.7540
   597.36         1.7452
   597.50         1.7363
   597.64         1.7284
   597.78         1.7222
   597.92         1.7183
   598.06         1.7167
   598.20         1.7172
   598.34         1.7194
   598.48         1.7226
   598.62         1.7265
   598.76         1.7304
   598.90         1.7334
   599.04         1.7350
   599.18         1.7346
   599.32         1.7319
   599.46         1.7272
   599.60         1.7207
   599.74         1.7126
   599.88         1.7035
   600.02         1.6940
   600.16         1.6848
   600.30         1.6762
   600.44         1.6686
   600.58         1.6621
   600.72         1.6565
   600.86         1.6517
   601.00         1.6475
   601.14         1.6439
   601.28         1.6412
   601.42         1.6399
   601.56         1.6401
   601.70         1.6422
   601.84         1.6460
   601.98         1.6515
   602.12         1.6581
   602.26         1.6656
   602.40         1.6735
   602.54         1.6817
   602.68         1.6895
   602.82         1.6964
   602.96         1.7016
   603.10         1.7046
   603.24         1.7052
   603.38         1.7035
   603.52         1.7000
   603.66         1.6958
   603.80         1.6916
   603.94         1.6877
   604.08         1.6842
   604.22         1.6813
   604.36         1.6788
   604.50         1.6768
   604.64         1.6753
   604.78         1.6743
   604.92         1.6738
   605.06         1.6736
   605.20         1.6736
   605.34         1.6741
   605.48         1.6752
   605.62         1.6767
   605.76         1.6787
   605.90         1.6809
   606.04         1.6829
   606.18         1.6843
   606.32         1.6844
   606.46         1.6823
   606.60         1.6777
   606.74         1.6708
   606.88         1.6623
   607.02         1.6532
   607.16         1.6447
   607.30         1.6374
   607.44         1.6316
   607.58         1.6277
   607.72         1.6255
   607.86         1.6251
   608.00         1.6262
   608.14         1.6282
   608.28         1.6307
   608.42         1.6336
   608.56         1.6374
   608.70         1.6425
   608.84         1.6491
   608.98         1.6571
   609.12         1.6664
   609.26         1.6766
   609.40         1.6870
   609.54         1.6966
   609.68         1.7045
   609.82         1.7099
   609.96         1.7123
   610.10         1.7117
   610.24         1.7085
   610.38         1.7036
   610.52         1.6977
   610.66         1.6914
   610.80         1.6853
   610.94         1.6798
   611.08         1.6757
   611.22         1.6728
   611.36         1.6706
   611.50         1.6685
   611.64         1.6658
   611.78         1.6619
   611.92         1.6563
   612.06         1.6488
   612.20         1.6396
   612.34         1.6288
   612.48         1.6166
   612.62         1.6036
   612.76         1.5903
   612.90         1.5773
   613.04         1.5654
   613.18         1.5551
   613.32         1.5467
   613.46         1.5404
   613.60         1.5364
   613.74         1.5347
   613.88         1.5351
   614.02         1.5373
   614.16         1.5408
   614.30         1.5453
   614.44         1.5507
   614.58         1.5567
   614.72         1.5631
   614.86         1.5695
   615.00         1.5752
   615.14         1.5799
   615.28         1.5834
   615.42         1.5857
   615.56         1.5869
   615.70         1.5872
   615.84         1.5867
   615.98         1.5856
   616.12         1.5844
   616.26         1.5836
   616.40         1.5837
   616.54         1.5849
   616.68         1.5870
   616.82         1.5897
   616.96         1.5928
   617.10         1.5957
   617.24         1.5978
   617.38         1.5988
   617.52         1.5989
   617.66         1.5983
   617.80         1.5975
   617.94         1.5972
   618.08         1.5976
   618.22         1.5989
   618.36         1.6008
   618.50         1.6027
   618.64         1.6043
   618.78         1.6050
   618.92         1.6043
   619.06         1.6021
   619.20         1.5982
   619.34         1.5930
   619.48         1.5868
   619.62         1.5802
   619.76         1.5734
   619.90         1.5669
   620.04         1.5611
   620.18         1.5564
   620.32         1.5529
   620.46         1.5504
   620.60         1.5485
   620.74         1.5464
   620.88         1.5434
   621.02         1.5390
   621.16         1.5332
   621.30         1.5262
   621.44         1.5184
   621.58         1.5103
   621.72         1.5021
   621.86         1.4943
   622.00         1.4873
   622.14         1.4812
   622.28         1.4763
   622.42         1.4727
   622.56         1.4703
   622.70         1.4690
   622.84         1.4685
   622.98         1.4687
   623.12         1.4693
   623.26         1.4705
   623.40         1.4727
   623.54         1.4762
   623.68         1.4810
   623.82         1.4870
   623.96         1.4938
   624.10         1.5010
   624.24         1.5081
   624.38         1.5147
   624.52         1.5207
   624.66         1.5262
   624.80         1.5312
   624.94         1.5358
   625.08         1.5396
   625.22         1.5423
   625.36         1.5442
   625.50         1.5454
   625.64         1.5461
   625.78         1.5464
   625.92         1.5458
   626.06         1.5437
   626.20         1.5397
   626.34         1.5336
   626.48         1.5257
   626.62         1.5161
   626.76         1.5047
   626.90         1.4920
   627.04         1.4786
   627.18         1.4654
   627.32         1.4530
   627.46         1.4420
   627.60         1.4327
   627.74         1.4255
   627.88         1.4206
   628.02         1.4177
   628.16         1.4166
   628.30         1.4169
   628.44         1.4179
   628.58         1.4193
   628.72         1.4210
   628.86         1.4235
   629.00         1.4266
   629.14         1.4302
   629.28         1.4343
   629.42         1.4389
   629.56         1.4442
   629.70         1.4502
   629.84         1.4565
   629.98         1.4628
   630.12         1.4687
   630.26         1.4735
   630.40         1.4766
   630.54         1.4771
   630.68         1.4749
   630.82         1.4703
   630.96         1.4638
   631.10         1.4559
   631.24         1.4475
   631.38         1.4393
   631.52         1.4317
   631.66         1.4249
   631.80         1.4190
   631.94         1.4143
   632.08         1.4108
   632.22         1.4088
   632.36         1.4081
   632.50         1.4086
   632.64         1.4099
   632.78         1.4115
   632.92         1.4130
   633.06         1.4140
   633.20         1.4147
   633.34         1.4154
   633.48         1.4161
   633.62         1.4167
   633.76         1.4167
   633.90         1.4158
   634.04         1.4140
   634.18         1.4117
   634.32         1.4093
   634.46         1.4075
   634.60         1.4066
   634.74         1.4071
   634.88         1.4088
   635.02         1.4114
   635.16         1.4145
   635.30         1.4180
   635.44         1.4217
   635.58         1.4260
   635.72         1.4307
   635.86         1.4353
   636.00         1.4390
   636.14         1.4411
   636.28         1.4415
   636.42         1.4402
   636.56         1.4378
   636.70         1.4344
   636.84         1.4302
   636.98         1.4252
   637.12         1.4196
   637.26         1.4136
   637.40         1.4076
   637.54         1.4022
   637.68         1.3981
   637.82         1.3959
   637.96         1.3961
   638.10         1.3989
   638.24         1.4040
   638.38         1.4102
   638.52         1.4166
   638.66         1.4225
   638.80         1.4275
   638.94         1.4315
   639.08         1.4344
   639.22         1.4364
   639.36         1.4376
   639.50         1.4380
   639.64         1.4375
   639.78         1.4360
   639.92         1.4332
   640.06         1.4288
   640.20         1.4231
   640.34         1.4161
   640.48         1.4084
   640.62         1.4003
   640.76         1.3926
   640.90         1.3856
   641.04         1.3799
   641.18         1.3759
   641.32         1.3740
   641.46         1.3744
   641.60         1.3771
   641.74         1.3816
   641.88         1.3869
   642.02         1.3921
   642.16         1.3968
   642.30         1.4003
   642.44         1.4021
   642.58         1.4022
   642.72         1.4010
   642.86         1.3992
   643.00         1.3971
   643.14         1.3951
   643.28         1.3934
   643.42         1.3919
   643.56         1.3904
   643.70         1.3881
   643.84         1.3847
   643.98         1.3802
   644.12         1.3747
   644.26         1.3687
   644.40         1.3627
   644.54         1.3572
   644.68         1.3528
   644.82         1.3495
   644.96         1.3478
   645.10         1.3479
   645.24         1.3500
   645.38         1.3540
   645.52         1.3591
   645.66         1.3646
   645.80         1.3695
   645.94         1.3727
   646.08         1.3736
   646.22         1.3723
   646.36         1.3692
   646.50         1.3653
   646.64         1.3615
   646.78         1.3585
   646.92         1.3569
   647.06         1.3567
   647.20         1.3580
   647.34         1.3605
   647.48         1.3640
   647.62         1.3681
   647.76         1.3725
   647.90         1.3764
   648.04         1.3788
   648.18         1.3795
   648.32         1.3784
   648.46         1.3757
   648.60         1.3719
   648.74         1.3674
   648.88         1.3626
   649.02         1.3580
   649.16         1.3539
   649.30         1.3504
   649.44         1.3475
   649.58         1.3455
   649.72         1.3442
   649.86         1.3438
   650.00         1.3441
   650.14         1.3449
   650.28         1.3454
   650.42         1.3451
   650.56         1.3436
   650.70         1.3409
   650.84         1.3376
   650.98         1.3339
   651.12         1.3301
   651.26         1.3264
   651.40         1.3231
   651.54         1.3208
   651.68         1.3195
   651.82         1.3192
   651.96         1.3196
   652.10         1.3206
   652.24         1.3218
   652.38         1.3229
   652.52         1.3235
   652.66         1.3231
   652.80         1.3212
   652.94         1.3176
   653.08         1.3124
   653.22         1.3057
   653.36         1.2976
   653.50         1.2879
   653.64         1.2766
   653.78         1.2637
   653.92         1.2494
   654.06         1.2336
   654.20         1.2161
   654.34         1.1967
   654.48         1.1752
   654.62         1.1517
   654.76         1.1261
   654.90         1.0983
   655.04         1.0684
   655.18         1.0365
   655.32         1.0030
   655.46         0.9690
   655.60         0.9361
   655.74         0.9061
   655.88         0.8805
   656.02         0.8608
   656.16         0.8481
   656.30         0.8434
   656.44         0.8469
   656.58         0.8582
   656.72         0.8762
   656.86         0.8998
   657.00         0.9277
   657.14         0.9582
   657.28         0.9895
   657.42         1.0199
   657.56         1.0478
   657.70         1.0723
   657.84         1.0933
   657.98         1.1115
   658.12         1.1275
   658.26         1.1418
   658.40         1.1547
   658.54         1.1667
   658.68         1.1782
   658.82         1.1897
   658.96         1.2013
   659.10         1.2127
   659.24         1.2237
   659.38         1.2337
   659.52         1.2425
   659.66         1.2494
   659.80         1.2544
   659.94         1.2572
   660.08         1.2581
   660.22         1.2573
   660.36         1.2555
   660.50         1.2533
   660.64         1.2513
   660.78         1.2496
   660.92         1.2484
   661.06         1.2477
   661.20         1.2474
   661.34         1.2477
   661.48         1.2482
   661.62         1.2487
   661.76         1.2491
   661.90         1.2496
   662.04         1.2504
   662.18         1.2522
   662.32         1.2550
   662.46         1.2589
   662.60         1.2636
   662.74         1.2685
   662.88         1.2734
   663.02         1.2778
   663.16         1.2812
   663.30         1.2830
   663.44         1.2830
   663.58         1.2814
   663.72         1.2786
   663.86         1.2751
   664.00         1.2713
   664.14         1.2676
   664.28         1.2643
   664.42         1.2615
   664.56         1.2589
   664.70         1.2562
   664.84         1.2531
   664.98         1.2493
   665.12         1.2448
   665.26         1.2392
   665.40         1.2329
   665.54         1.2258
   665.68         1.2184
   665.82         1.2109
   665.96         1.2037
   666.10         1.1973
   666.24         1.1919
   666.38         1.1876
   666.52         1.1843
   666.66         1.1820
   666.80         1.1809
   666.94         1.1808
   667.08         1.1817
   667.22         1.1837
   667.36         1.1872
   667.50         1.1923
   667.64         1.1989
   667.78         1.2064
   667.92         1.2143
   668.06         1.2221
   668.20         1.2294
   668.34         1.2361
   668.48         1.2417
   668.62         1.2462
   668.76         1.2491
   668.90         1.2505
   669.04         1.2504
   669.18         1.2490
   669.32         1.2466
   669.46         1.2432
   669.60         1.2391
   669.74         1.2344
   669.88         1.2293
   670.02         1.2245
   670.16         1.2200
   670.30         1.2159
   670.44         1.2121
   670.58         1.2083
   670.72         1.2047
   670.86         1.2011
   671.00         1.1976
   671.14         1.1942
   671.28         1.1910
   671.42         1.1884
   671.56         1.1866
   671.70         1.1858
   671.84         1.1862
   671.98         1.1876
   672.12         1.1899
   672.26         1.1928
   672.40         1.1958
   672.54         1.1988
   672.68         1.2011
   672.82         1.2020
   672.96         1.2008
   673.10         1.1974
   673.24         1.1920
   673.38         1.1854
   673.52         1.1781
   673.66         1.1706
   673.80         1.1634
   673.94         1.1568
   674.08         1.1514
   674.22         1.1475
   674.36         1.1453
   674.50         1.1445
   674.64         1.1450
   674.78         1.1466
   674.92         1.1495
   675.06         1.1539
   675.20         1.1598
   675.34         1.1671
   675.48         1.1752
   675.62         1.1837
   675.76         1.1922
   675.90         1.2000
   676.04         1.2066
   676.18         1.2116
   676.32         1.2145
   676.46         1.2151
   676.60         1.2135
   676.74         1.2100
   676.88         1.2049
   677.02         1.1986
   677.16         1.1915
   677.30         1.1842
   677.44         1.1775
   677.58         1.1718
   677.72         1.1670
   677.86         1.1630
   678.00         1.1600
   678.14         1.1579
   678.28         1.1564
   678.42         1.1556
   678.56         1.1554
   678.70         1.1553
   678.84         1.1550
   678.98         1.1543
   679.12         1.1532
   679.26         1.1523
   679.40         1.1519
   679.54         1.1521
   679.68         1.1524
   679.82         1.1527
   679.96         1.1528
   680.10         1.1525
   680.24         1.1520
   680.38         1.1512
   680.52         1.1500
   680.66         1.1484
   680.80         1.1464
   680.94         1.1441
   681.08         1.1415
   681.22         1.1385
   681.36         1.1353
   681.50         1.1320
   681.64         1.1293
   681.78         1.1271
   681.92         1.1256
   682.06         1.1245
   682.20         1.1239
   682.34         1.1235
   682.48         1.1234
   682.62         1.1234
   682.76         1.1235
   682.90         1.1236
   683.04         1.1235
   683.18         1.1231
   683.32         1.1223
   683.46         1.1215
   683.60         1.1208
   683.74         1.1208
   683.88         1.1218
   684.02         1.1241
   684.16         1.1275
   684.30         1.1313
   684.44         1.1351
   684.58         1.1383
   684.72         1.1407
   684.86         1.1419
   685.00         1.1420
   685.14         1.1411
   685.28         1.1394
   685.42         1.1367
   685.56         1.1323
   685.70         1.1251
   685.84         1.1138
   685.98         1.0981
   686.12         1.0778
   686.26         1.0537
   686.40         1.0267
   686.54         0.9985
   686.68         0.9711
   686.82         0.9464
   686.96         0.9267
   687.10         0.9136
   687.24         0.9083
   687.38         0.9108
   687.52         0.9200
   687.66         0.9342
   687.80         0.9511
   687.94         0.9684
   688.08         0.9839
   688.22         0.9962
   688.36         1.0046
   688.50         1.0092
   688.64         1.0106
   688.78         1.0093
   688.92         1.0066
   689.06         1.0033
   689.20         1.0004
   689.34         0.9981
   689.48         0.9968
   689.62         0.9965
   689.76         0.9967
   689.90         0.9971
   690.04         0.9977
   690.18         0.9983
   690.32         0.9995
   690.46         1.0015
   690.60         1.0050
   690.74         1.0098
   690.88         1.0160
   691.02         1.0229
   691.16         1.0302
   691.30         1.0373
   691.44         1.0441
   691.58         1.0506
   691.72         1.0565
   691.86         1.0614
   692.00         1.0647
   692.14         1.0662
   692.28         1.0658
   692.42         1.0639
   692.56         1.0608
   692.70         1.0575
   692.84         1.0546
   692.98         1.0526
   693.12         1.0518
   693.26         1.0521
   693.40         1.0534
   693.54         1.0554
   693.68         1.0583
   693.82         1.0620
   693.96         1.0665
   694.10         1.0717
   694.24         1.0774
   694.38         1.0832
   694.52         1.0881
   694.66         1.0915
   694.80         1.0932
   694.94         1.0929
   695.08         1.0907
   695.22         1.0873
   695.36         1.0828
   695.50         1.0776
   695.64         1.0725
   695.78         1.0681
   695.92         1.0651
   696.06         1.0640
   696.20         1.0652
   696.34         1.0689
   696.48         1.0748
   696.62         1.0823
   696.76         1.0905
   696.90         1.0983
   697.04         1.1051
   697.18         1.1103
   697.32         1.1140
   697.46         1.1162
   697.60         1.1171
   697.74         1.1170
   697.88         1.1160
   698.02         1.1142
   698.16         1.1120
   698.30         1.1099
   698.44         1.1081
   698.58         1.1066
   698.72         1.1055
   698.86         1.1044
   699.00         1.1032
   699.14         1.1012
   699.28         1.0982
   699.42         1.0940
   699.56         1.0890
   699.70         1.0835
   699.84         1.0775
   699.98         1.0712
   700.12         1.0643
   700.26         1.0570
   700.40         1.0496
   700.54         1.0426
   700.68         1.0366
   700.82         1.0325
   700.96         1.0303
   701.10         1.0302
   701.24         1.0318
   701.38         1.0348
   701.52         1.0387
   701.66         1.0431
   701.80         1.0474
   701.94         1.0513
   702.08         1.0546
   702.22         1.0570
   702.36         1.0586
   702.50         1.0596
   702.64         1.0604
   702.78         1.0614
   702.92         1.0632
   703.06         1.0660
   703.20         1.0701
   703.34         1.0752
   703.48         1.0807
   703.62         1.0862
   703.76         1.0909
   703.90         1.0942
   704.04         1.0958
   704.18         1.0955
   704.32         1.0933
   704.46         1.0897
   704.60         1.0849
   704.74         1.0793
   704.88         1.0734
   705.02         1.0676
   705.16         1.0622
   705.30         1.0573
   705.44         1.0531
   705.58         1.0499
   705.72         1.0476
   705.86         1.0463
   706.00         1.0457
   706.14         1.0457
   706.28         1.0459
   706.42         1.0460
   706.56         1.0452
   706.70         1.0433
   706.84         1.0399
   706.98         1.0355
   707.12         1.0303
   707.26         1.0248
   707.40         1.0197
   707.54         1.0153
   707.68         1.0124
   707.82         1.0117
   707.96         1.0140
   708.10         1.0195
   708.24         1.0281
   708.38         1.0394
   708.52         1.0528
   708.66         1.0670
   708.80         1.0808
   708.94         1.0928
   709.08         1.1018
   709.22         1.1069
   709.36         1.1078
   709.50         1.1048
   709.64         1.0981
   709.78         1.0880
   709.92         1.0747
   710.06         1.0589
   710.20         1.0417
   710.34         1.0243
   710.48         1.0079
   710.62         0.9932
   710.76         0.9805
   710.90         0.9702
   711.04         0.9628
   711.18         0.9581
   711.32         0.9561
   711.46         0.9568
   711.60         0.9600
   711.74         0.9656
   711.88         0.9735
   712.02         0.9835
   712.16         0.9952
   712.30         1.0083
   712.44         1.0219
   712.58         1.0350
   712.72         1.0467
   712.86         1.0559
   713.00         1.0619
   713.14         1.0641
   713.28         1.0627
   713.42         1.0581
   713.56         1.0509
   713.70         1.0422
   713.84         1.0332
   713.98         1.0251
   714.12         1.0188
   714.26         1.0148
   714.40         1.0130
   714.54         1.0135
   714.68         1.0156
   714.82         1.0184
   714.96         1.0208
   715.10         1.0216
   715.24         1.0202
   715.38         1.0164
   715.52         1.0102
   715.66         1.0017
   715.80         0.9910
   715.94         0.9783
   716.08         0.9638
   716.22         0.9482
   716.36         0.9323
   716.50         0.9168
   716.64         0.9020
   716.78         0.8882
   716.92         0.8757
   717.06         0.8651
   717.20         0.8567
   717.34         0.8504
   717.48         0.8460
   717.62         0.8437
   717.76         0.8442
   717.90         0.8477
   718.04         0.8539
   718.18         0.8619
   718.32         0.8714
   718.46         0.8817
   718.60         0.8923
   718.74         0.9030
   718.88         0.9134
   719.02         0.9229
   719.16         0.9305
   719.30         0.9355
   719.44         0.9374
   719.58         0.9363
   719.72         0.9327
   719.86         0.9278
   720.00         0.9227
   720.14         0.9192
   720.28         0.9188
   720.42         0.9222
   720.56         0.9290
   720.70         0.9384
   720.84         0.9496
   720.98         0.9618
   721.12         0.9740
   721.26         0.9854
   721.40         0.9954
   721.54         1.0030
   721.68         1.0078
   721.82         1.0096
   721.96         1.0087
   722.10         1.0059
   722.24         1.0016
   722.38         0.9967
   722.52         0.9918
   722.66         0.9874
   722.80         0.9838
   722.94         0.9808
   723.08         0.9779
   723.22         0.9747
   723.36         0.9710
   723.50         0.9669
   723.64         0.9627
   723.78         0.9587
   723.92         0.9550
   724.06         0.9520
   724.20         0.9496
   724.34         0.9477
   724.48         0.9460
   724.62         0.9445
   724.76         0.9430
   724.90         0.9418
   725.04         0.9413
   725.18         0.9413
   725.32         0.9415
   725.46         0.9411
   725.60         0.9399
   725.74         0.9380
   725.88         0.9355
   726.02         0.9327
   726.16         0.9298
   726.30         0.9267
   726.44         0.9232
   726.58         0.9187
   726.72         0.9133
   726.86         0.9071
   727.00         0.9004
   727.14         0.8939
   727.28         0.8879
   727.42         0.8830
   727.56         0.8792
   727.70         0.8762
   727.84         0.8734
   727.98         0.8702
   728.12         0.8668
   728.26         0.8632
   728.40         0.8596
   728.54         0.8560
   728.68         0.8523
   728.82         0.8488
   728.96         0.8453
   729.10         0.8421
   729.24         0.8396
   729.38         0.8384
   729.52         0.8388
   729.66         0.8405
   729.80         0.8433
   729.94         0.8465
   730.08         0.8495
   730.22         0.8518
   730.36         0.8528
   730.50         0.8522
   730.64         0.8501
   730.78         0.8466
   730.92         0.8422
   731.06         0.8375
   731.20         0.8330
   731.34         0.8295
   731.48         0.8279
   731.62         0.8287
   731.76         0.8325
   731.90         0.8393
   732.04         0.8487
   732.18         0.8597
   732.32         0.8712
   732.46         0.8821
   732.60         0.8913
   732.74         0.8984
   732.88         0.9035
   733.02         0.9070
   733.16         0.9094
   733.30         0.9116
   733.44         0.9141
   733.58         0.9173
   733.72         0.9209
   733.86         0.9246
   734.00         0.9279
   734.14         0.9299
   734.28         0.9299
   734.42         0.9277
   734.56         0.9232
   734.70         0.9164
   734.84         0.9080
   734.98         0.8990
   735.12         0.8903
   735.26         0.8828
   735.40         0.8775
   735.54         0.8747
   735.68         0.8742
   735.82         0.8752
   735.96         0.8767
   736.10         0.8779
   736.24         0.8778
   736.38         0.8760
   736.52         0.8724
   736.66         0.8672
   736.80         0.8612
   736.94         0.8549
   737.08         0.8491
   737.22         0.8440
   737.36         0.8400
   737.50         0.8374
   737.64         0.8362
   737.78         0.8363
   737.92         0.8377
   738.06         0.8406
   738.20         0.8447
   738.34         0.8498
   738.48         0.8556
   738.62         0.8617
   738.76         0.8684
   738.90         0.8756
   739.04         0.8834
   739.18         0.8915
   739.32         0.8997
   739.46         0.9073
   739.60         0.9143
   739.74         0.9202
   739.88         0.9248
   740.02         0.9276
   740.16         0.9285
   740.30         0.9278
   740.44         0.9261
   740.58         0.9244
   740.72         0.9234
   740.86         0.9238
   741.00         0.9258
   741.14         0.9296
   741.28         0.9346
   741.42         0.9399
   741.56         0.9445
   741.70         0.9474
   741.84         0.9479
   741.98         0.9455
   742.12         0.9406
   742.26         0.9337
   742.40         0.9258
   742.54         0.9178
   742.68         0.9113
   742.82         0.9076
   742.96         0.9076
   743.10         0.9113
   743.24         0.9178
   743.38         0.9258
   743.52         0.9337
   743.66         0.9406
   743.80         0.9455
   743.94         0.9479
   744.08         0.9474
   744.22         0.9445
