# File FEIGE40
# Wavelength [nm]    Normalized Amplitude
   349.70         6.0517
   349.84         6.0288
   349.98         6.0078
   350.12         5.9919
   350.26         5.9826
   350.40         5.9804
   350.54         5.9840
   350.68         5.9911
   350.82         5.9988
   350.96         6.0047
   351.10         6.0068
   351.24         6.0047
   351.38         5.9988
   351.52         5.9911
   351.66         5.9840
   351.80         5.9804
   351.94         5.9826
   352.08         5.9919
   352.22         6.0078
   352.36         6.0288
   352.50         6.0517
   352.64         6.0730
   352.78         6.0893
   352.92         6.0979
   353.06         6.0972
   353.20         6.0876
   353.34         6.0713
   353.48         6.0515
   353.62         6.0305
   353.76         6.0099
   353.90         5.9907
   354.04         5.9731
   354.18         5.9575
   354.32         5.9441
   354.46         5.9333
   354.60         5.9265
   354.74         5.9251
   354.88         5.9302
   355.02         5.9418
   355.16         5.9584
   355.30         5.9770
   355.44         5.9942
   355.58         6.0056
   355.72         6.0065
   355.86         5.9926
   356.00         5.9614
   356.14         5.9129
   356.28         5.8493
   356.42         5.7752
   356.56         5.6956
   356.70         5.6160
   356.84         5.5416
   356.98         5.4770
   357.12         5.4253
   357.26         5.3875
   357.40         5.3617
   357.54         5.3443
   357.68         5.3308
   357.82         5.3169
   357.96         5.2992
   358.10         5.2763
   358.24         5.2484
   358.38         5.2176
   358.52         5.1877
   358.66         5.1632
   358.80         5.1475
   358.94         5.1420
   359.08         5.1463
   359.22         5.1585
   359.36         5.1772
   359.50         5.2014
   359.64         5.2289
   359.78         5.2561
   359.92         5.2784
   360.06         5.2927
   360.20         5.2979
   360.34         5.2950
   360.48         5.2857
   360.62         5.2721
   360.76         5.2562
   360.90         5.2406
   361.04         5.2271
   361.18         5.2172
   361.32         5.2113
   361.46         5.2103
   361.60         5.2153
   361.74         5.2274
   361.88         5.2477
   362.02         5.2764
   362.16         5.3125
   362.30         5.3535
   362.44         5.3979
   362.58         5.4464
   362.72         5.4993
   362.86         5.5544
   363.00         5.6069
   363.14         5.6516
   363.28         5.6842
   363.42         5.7028
   363.56         5.7068
   363.70         5.6969
   363.84         5.6747
   363.98         5.6430
   364.12         5.6049
   364.26         5.5629
   364.40         5.5186
   364.54         5.4734
   364.68         5.4284
   364.82         5.3851
   364.96         5.3451
   365.10         5.3100
   365.24         5.2809
   365.38         5.2584
   365.52         5.2425
   365.66         5.2333
   365.80         5.2302
   365.94         5.2329
   366.08         5.2408
   366.22         5.2530
   366.36         5.2679
   366.50         5.2838
   366.64         5.2992
   366.78         5.3125
   366.92         5.3226
   367.06         5.3293
   367.20         5.3340
   367.34         5.3395
   367.48         5.3469
   367.62         5.3550
   367.76         5.3617
   367.90         5.3656
   368.04         5.3649
   368.18         5.3575
   368.32         5.3416
   368.46         5.3180
   368.60         5.2897
   368.74         5.2601
   368.88         5.2319
   369.02         5.2073
   369.16         5.1881
   369.30         5.1750
   369.44         5.1684
   369.58         5.1696
   369.72         5.1794
   369.86         5.1975
   370.00         5.2212
   370.14         5.2465
   370.28         5.2712
   370.42         5.2955
   370.56         5.3202
   370.70         5.3443
   370.84         5.3653
   370.98         5.3801
   371.12         5.3865
   371.26         5.3831
   371.40         5.3695
   371.54         5.3467
   371.68         5.3172
   371.82         5.2853
   371.96         5.2559
   372.10         5.2331
   372.24         5.2178
   372.38         5.2069
   372.52         5.1962
   372.66         5.1823
   372.80         5.1640
   372.94         5.1424
   373.08         5.1206
   373.22         5.1027
   373.36         5.0925
   373.50         5.0932
   373.64         5.1058
   373.78         5.1290
   373.92         5.1590
   374.06         5.1907
   374.20         5.2180
   374.34         5.2371
   374.48         5.2470
   374.62         5.2485
   374.76         5.2443
   374.90         5.2396
   375.04         5.2430
   375.18         5.2642
   375.32         5.3115
   375.46         5.3894
   375.60         5.4959
   375.74         5.6210
   375.88         5.7475
   376.02         5.8549
   376.16         5.9243
   376.30         5.9431
   376.44         5.9079
   376.58         5.8256
   376.72         5.7112
   376.86         5.5859
   377.00         5.4741
   377.14         5.3985
   377.28         5.3762
   377.42         5.4165
   377.56         5.5209
   377.70         5.6824
   377.84         5.8867
   377.98         6.1134
   378.12         6.3382
   378.26         6.5356
   378.40         6.6822
   378.54         6.7603
   378.68         6.7600
   378.82         6.6822
   378.96         6.5374
   379.10         6.3434
   379.24         6.1229
   379.38         5.9004
   379.52         5.6998
   379.66         5.5420
   379.80         5.4432
   379.94         5.4136
   380.08         5.4574
   380.22         5.5729
   380.36         5.7522
   380.50         5.9813
   380.64         6.2410
   380.78         6.5082
   380.92         6.7594
   381.06         6.9757
   381.20         7.1452
   381.34         7.2644
   381.48         7.3356
   381.62         7.3638
   381.76         7.3542
   381.90         7.3109
   382.04         7.2359
   382.18         7.1297
   382.32         6.9921
   382.46         6.8234
   382.60         6.6261
   382.74         6.4064
   382.88         6.1749
   383.02         5.9452
   383.16         5.7322
   383.30         5.5508
   383.44         5.4165
   383.58         5.3438
   383.72         5.3435
   383.86         5.4200
   384.00         5.5709
   384.14         5.7865
   384.28         6.0501
   384.42         6.3409
   384.56         6.6379
   384.70         6.9211
   384.84         7.1749
   384.98         7.3888
   385.12         7.5581
   385.26         7.6832
   385.40         7.7688
   385.54         7.8204
   385.68         7.8431
   385.82         7.8409
   385.96         7.8190
   386.10         7.7839
   386.24         7.7421
   386.38         7.6990
   386.52         7.6583
   386.66         7.6204
   386.80         7.5824
   386.94         7.5393
   387.08         7.4863
   387.22         7.4179
   387.36         7.3277
   387.50         7.2095
   387.64         7.0577
   387.78         6.8692
   387.92         6.6446
   388.06         6.3896
   388.20         6.1154
   388.34         5.8386
   388.48         5.5793
   388.62         5.3586
   388.76         5.1949
   388.90         5.1017
   389.04         5.0856
   389.18         5.1467
   389.32         5.2786
   389.46         5.4699
   389.60         5.7045
   389.74         5.9637
   389.88         6.2291
   390.02         6.4844
   390.16         6.7165
   390.30         6.9164
   390.44         7.0804
   390.58         7.2092
   390.72         7.3072
   390.86         7.3795
   391.00         7.4311
   391.14         7.4652
   391.28         7.4835
   391.42         7.4874
   391.56         7.4779
   391.70         7.4555
   391.84         7.4209
   391.98         7.3750
   392.12         7.3192
   392.26         7.2563
   392.40         7.1912
   392.54         7.1294
   392.68         7.0760
   392.82         7.0346
   392.96         7.0082
   393.10         6.9986
   393.24         7.0056
   393.38         7.0274
   393.52         7.0610
   393.66         7.1029
   393.80         7.1486
   393.94         7.1929
   394.08         7.2302
   394.22         7.2552
   394.36         7.2634
   394.50         7.2516
   394.64         7.2189
   394.78         7.1663
   394.92         7.0962
   395.06         7.0110
   395.20         6.9121
   395.34         6.7985
   395.48         6.6680
   395.62         6.5168
   395.76         6.3414
   395.90         6.1405
   396.04         5.9154
   396.18         5.6711
   396.32         5.4172
   396.46         5.1666
   396.60         4.9346
   396.74         4.7363
   396.88         4.5854
   397.02         4.4927
   397.16         4.4646
   397.30         4.5028
   397.44         4.6040
   397.58         4.7602
   397.72         4.9592
   397.86         5.1860
   398.00         5.4246
   398.14         5.6597
   398.28         5.8785
   398.42         6.0723
   398.56         6.2374
   398.70         6.3744
   398.84         6.4865
   398.98         6.5778
   399.12         6.6514
   399.26         6.7088
   399.40         6.7511
   399.54         6.7795
   399.68         6.7950
   399.82         6.7988
   399.96         6.7923
   400.10         6.7778
   400.24         6.7574
   400.38         6.7336
   400.52         6.7087
   400.66         6.6846
   400.80         6.6626
   400.94         6.6438
   401.08         6.6286
   401.22         6.6163
   401.36         6.6042
   401.50         6.5886
   401.64         6.5657
   401.78         6.5330
   401.92         6.4903
   402.06         6.4403
   402.20         6.3875
   402.34         6.3366
   402.48         6.2926
   402.62         6.2601
   402.76         6.2425
   402.90         6.2416
   403.04         6.2577
   403.18         6.2891
   403.32         6.3318
   403.46         6.3811
   403.60         6.4321
   403.74         6.4802
   403.88         6.5219
   404.02         6.5548
   404.16         6.5778
   404.30         6.5918
   404.44         6.5989
   404.58         6.6021
   404.72         6.6039
   404.86         6.6056
   405.00         6.6078
   405.14         6.6100
   405.28         6.6116
   405.42         6.6119
   405.56         6.6100
   405.70         6.6048
   405.84         6.5951
   405.98         6.5812
   406.12         6.5642
   406.26         6.5459
   406.40         6.5276
   406.54         6.5099
   406.68         6.4935
   406.82         6.4788
   406.96         6.4663
   407.10         6.4558
   407.24         6.4466
   407.38         6.4378
   407.52         6.4288
   407.66         6.4185
   407.80         6.4063
   407.94         6.3912
   408.08         6.3714
   408.22         6.3439
   408.36         6.3060
   408.50         6.2546
   408.64         6.1861
   408.78         6.0953
   408.92         5.9762
   409.06         5.8250
   409.20         5.6409
   409.34         5.4279
   409.48         5.1943
   409.62         4.9520
   409.76         4.7161
   409.90         4.5030
   410.04         4.3286
   410.18         4.2056
   410.32         4.1418
   410.46         4.1398
   410.60         4.1966
   410.74         4.3050
   410.88         4.4541
   411.02         4.6308
   411.16         4.8209
   411.30         5.0103
   411.44         5.1873
   411.58         5.3440
   411.72         5.4757
   411.86         5.5815
   412.00         5.6626
   412.14         5.7223
   412.28         5.7648
   412.42         5.7948
   412.56         5.8168
   412.70         5.8342
   412.84         5.8489
   412.98         5.8622
   413.12         5.8746
   413.26         5.8860
   413.40         5.8959
   413.54         5.9035
   413.68         5.9088
   413.82         5.9126
   413.96         5.9158
   414.10         5.9194
   414.24         5.9241
   414.38         5.9307
   414.52         5.9401
   414.66         5.9529
   414.80         5.9697
   414.94         5.9905
   415.08         6.0142
   415.22         6.0388
   415.36         6.0611
   415.50         6.0789
   415.64         6.0903
   415.78         6.0937
   415.92         6.0887
   416.06         6.0757
   416.20         6.0561
   416.34         6.0321
   416.48         6.0056
   416.62         5.9787
   416.76         5.9529
   416.90         5.9300
   417.04         5.9113
   417.18         5.8975
   417.32         5.8887
   417.46         5.8843
   417.60         5.8832
   417.74         5.8842
   417.88         5.8860
   418.02         5.8877
   418.16         5.8882
   418.30         5.8861
   418.44         5.8803
   418.58         5.8705
   418.72         5.8576
   418.86         5.8432
   419.00         5.8290
   419.14         5.8163
   419.28         5.8057
   419.42         5.7972
   419.56         5.7905
   419.70         5.7854
   419.84         5.7816
   419.98         5.7792
   420.12         5.7786
   420.26         5.7790
   420.40         5.7794
   420.54         5.7785
   420.68         5.7759
   420.82         5.7714
   420.96         5.7656
   421.10         5.7592
   421.24         5.7531
   421.38         5.7476
   421.52         5.7424
   421.66         5.7367
   421.80         5.7301
   421.94         5.7228
   422.08         5.7154
   422.22         5.7082
   422.36         5.7010
   422.50         5.6932
   422.64         5.6841
   422.78         5.6731
   422.92         5.6598
   423.06         5.6450
   423.20         5.6302
   423.34         5.6166
   423.48         5.6047
   423.62         5.5943
   423.76         5.5851
   423.90         5.5767
   424.04         5.5685
   424.18         5.5600
   424.32         5.5504
   424.46         5.5398
   424.60         5.5283
   424.74         5.5152
   424.88         5.5003
   425.02         5.4841
   425.16         5.4682
   425.30         5.4537
   425.44         5.4413
   425.58         5.4310
   425.72         5.4228
   425.86         5.4160
   426.00         5.4097
   426.14         5.4030
   426.28         5.3955
   426.42         5.3874
   426.56         5.3791
   426.70         5.3707
   426.84         5.3625
   426.98         5.3558
   427.12         5.3521
   427.26         5.3520
   427.40         5.3558
   427.54         5.3629
   427.68         5.3720
   427.82         5.3812
   427.96         5.3888
   428.10         5.3935
   428.24         5.3946
   428.38         5.3922
   428.52         5.3869
   428.66         5.3796
   428.80         5.3717
   428.94         5.3643
   429.08         5.3579
   429.22         5.3531
   429.36         5.3503
   429.50         5.3493
   429.64         5.3497
   429.78         5.3504
   429.92         5.3499
   430.06         5.3466
   430.20         5.3392
   430.34         5.3275
   430.48         5.3118
   430.62         5.2929
   430.76         5.2718
   430.90         5.2492
   431.04         5.2257
   431.18         5.2018
   431.32         5.1778
   431.46         5.1539
   431.60         5.1298
   431.74         5.1047
   431.88         5.0769
   432.02         5.0439
   432.16         5.0032
   432.30         4.9526
   432.44         4.8903
   432.58         4.8144
   432.72         4.7229
   432.86         4.6141
   433.00         4.4874
   433.14         4.3441
   433.28         4.1885
   433.42         4.0273
   433.56         3.8690
   433.70         3.7231
   433.84         3.5994
   433.98         3.5067
   434.12         3.4516
   434.26         3.4378
   434.40         3.4660
   434.54         3.5342
   434.68         3.6378
   434.82         3.7697
   434.96         3.9207
   435.10         4.0799
   435.24         4.2363
   435.38         4.3809
   435.52         4.5071
   435.66         4.6115
   435.80         4.6936
   435.94         4.7550
   436.08         4.7992
   436.22         4.8302
   436.36         4.8522
   436.50         4.8688
   436.64         4.8828
   436.78         4.8959
   436.92         4.9086
   437.06         4.9210
   437.20         4.9320
   437.34         4.9393
   437.48         4.9399
   437.62         4.9312
   437.76         4.9118
   437.90         4.8824
   438.04         4.8451
   438.18         4.8032
   438.32         4.7603
   438.46         4.7205
   438.60         4.6878
   438.74         4.6653
   438.88         4.6544
   439.02         4.6551
   439.16         4.6662
   439.30         4.6861
   439.44         4.7121
   439.58         4.7411
   439.72         4.7699
   439.86         4.7959
   440.00         4.8176
   440.14         4.8346
   440.28         4.8470
   440.42         4.8558
   440.56         4.8616
   440.70         4.8647
   440.84         4.8652
   440.98         4.8633
   441.12         4.8599
   441.26         4.8554
   441.40         4.8501
   441.54         4.8445
   441.68         4.8391
   441.82         4.8339
   441.96         4.8281
   442.10         4.8208
   442.24         4.8108
   442.38         4.7977
   442.52         4.7808
   442.66         4.7595
   442.80         4.7338
   442.94         4.7050
   443.08         4.6749
   443.22         4.6460
   443.36         4.6211
   443.50         4.6030
   443.64         4.5937
   443.78         4.5940
   443.92         4.6028
   444.06         4.6182
   444.20         4.6379
   444.34         4.6593
   444.48         4.6799
   444.62         4.6978
   444.76         4.7112
   444.90         4.7192
   445.04         4.7204
   445.18         4.7144
   445.32         4.7018
   445.46         4.6840
   445.60         4.6624
   445.74         4.6378
   445.88         4.6098
   446.02         4.5780
   446.16         4.5422
   446.30         4.5026
   446.44         4.4610
   446.58         4.4194
   446.72         4.3804
   446.86         4.3461
   447.00         4.3184
   447.14         4.2980
   447.28         4.2854
   447.42         4.2809
   447.56         4.2848
   447.70         4.2970
   447.84         4.3170
   447.98         4.3439
   448.12         4.3758
   448.26         4.4102
   448.40         4.4444
   448.54         4.4765
   448.68         4.5049
   448.82         4.5294
   448.96         4.5500
   449.10         4.5664
   449.24         4.5781
   449.38         4.5846
   449.52         4.5862
   449.66         4.5839
   449.80         4.5790
   449.94         4.5730
   450.08         4.5666
   450.22         4.5597
   450.36         4.5518
   450.50         4.5424
   450.64         4.5312
   450.78         4.5182
   450.92         4.5038
   451.06         4.4887
   451.20         4.4735
   451.34         4.4594
   451.48         4.4471
   451.62         4.4376
   451.76         4.4311
   451.90         4.4274
   452.04         4.4257
   452.18         4.4250
   452.32         4.4245
   452.46         4.4231
   452.60         4.4196
   452.74         4.4136
   452.88         4.4047
   453.02         4.3928
   453.16         4.3776
   453.30         4.3598
   453.44         4.3409
   453.58         4.3223
   453.72         4.3050
   453.86         4.2900
   454.00         4.2777
   454.14         4.2684
   454.28         4.2623
   454.42         4.2593
   454.56         4.2593
   454.70         4.2617
   454.84         4.2662
   454.98         4.2720
   455.12         4.2785
   455.26         4.2849
   455.40         4.2906
   455.54         4.2948
   455.68         4.2970
   455.82         4.2967
   455.96         4.2938
   456.10         4.2883
   456.24         4.2799
   456.38         4.2681
   456.52         4.2535
   456.66         4.2375
   456.80         4.2217
   456.94         4.2081
   457.08         4.1982
   457.22         4.1923
   457.36         4.1904
   457.50         4.1918
   457.64         4.1960
   457.78         4.2017
   457.92         4.2076
   458.06         4.2123
   458.20         4.2141
   458.34         4.2123
   458.48         4.2066
   458.62         4.1973
   458.76         4.1857
   458.90         4.1735
   459.04         4.1620
   459.18         4.1522
   459.32         4.1442
   459.46         4.1378
   459.60         4.1321
   459.74         4.1263
   459.88         4.1197
   460.02         4.1126
   460.16         4.1055
   460.30         4.0988
   460.44         4.0930
   460.58         4.0889
   460.72         4.0871
   460.86         4.0880
   461.00         4.0915
   461.14         4.0971
   461.28         4.1041
   461.42         4.1114
   461.56         4.1173
   461.70         4.1205
   461.84         4.1200
   461.98         4.1152
   462.12         4.1064
   462.26         4.0942
   462.40         4.0794
   462.54         4.0630
   462.68         4.0457
   462.82         4.0283
   462.96         4.0112
   463.10         3.9956
   463.24         3.9823
   463.38         3.9719
   463.52         3.9642
   463.66         3.9591
   463.80         3.9564
   463.94         3.9555
   464.08         3.9558
   464.22         3.9577
   464.36         3.9611
   464.50         3.9660
   464.64         3.9717
   464.78         3.9778
   464.92         3.9841
   465.06         3.9901
   465.20         3.9949
   465.34         3.9982
   465.48         4.0000
   465.62         4.0003
   465.76         3.9997
   465.90         3.9994
   466.04         4.0004
   466.18         4.0027
   466.32         4.0064
   466.46         4.0112
   466.60         4.0165
   466.74         4.0216
   466.88         4.0255
   467.02         4.0267
   467.16         4.0240
   467.30         4.0167
   467.44         4.0049
   467.58         3.9888
   467.72         3.9699
   467.86         3.9504
   468.00         3.9328
   468.14         3.9186
   468.28         3.9083
   468.42         3.9019
   468.56         3.8991
   468.70         3.8984
   468.84         3.8986
   468.98         3.8989
   469.12         3.8990
   469.26         3.8988
   469.40         3.8975
   469.54         3.8947
   469.68         3.8901
   469.82         3.8837
   469.96         3.8756
   470.10         3.8656
   470.24         3.8544
   470.38         3.8420
   470.52         3.8281
   470.66         3.8125
   470.80         3.7952
   470.94         3.7770
   471.08         3.7593
   471.22         3.7444
   471.36         3.7338
   471.50         3.7279
   471.64         3.7262
   471.78         3.7272
   471.92         3.7297
   472.06         3.7324
   472.20         3.7343
   472.34         3.7350
   472.48         3.7344
   472.62         3.7328
   472.76         3.7304
   472.90         3.7276
   473.04         3.7246
   473.18         3.7216
   473.32         3.7185
   473.46         3.7151
   473.60         3.7109
   473.74         3.7054
   473.88         3.6984
   474.02         3.6891
   474.16         3.6767
   474.30         3.6615
   474.44         3.6451
   474.58         3.6296
   474.72         3.6173
   474.86         3.6094
   475.00         3.6064
   475.14         3.6086
   475.28         3.6153
   475.42         3.6262
   475.56         3.6408
   475.70         3.6584
   475.84         3.6775
   475.98         3.6962
   476.12         3.7127
   476.26         3.7251
   476.40         3.7324
   476.54         3.7338
   476.68         3.7288
   476.82         3.7171
   476.96         3.6993
   477.10         3.6770
   477.24         3.6520
   477.38         3.6265
   477.52         3.6026
   477.66         3.5825
   477.80         3.5683
   477.94         3.5615
   478.08         3.5626
   478.22         3.5712
   478.36         3.5854
   478.50         3.6024
   478.64         3.6197
   478.78         3.6352
   478.92         3.6472
   479.06         3.6546
   479.20         3.6567
   479.34         3.6540
   479.48         3.6479
   479.62         3.6401
   479.76         3.6324
   479.90         3.6263
   480.04         3.6228
   480.18         3.6212
   480.32         3.6206
   480.46         3.6203
   480.60         3.6196
   480.74         3.6173
   480.88         3.6125
   481.02         3.6048
   481.16         3.5945
   481.30         3.5826
   481.44         3.5706
   481.58         3.5597
   481.72         3.5510
   481.86         3.5449
   482.00         3.5413
   482.14         3.5395
   482.28         3.5379
   482.42         3.5360
   482.56         3.5334
   482.70         3.5299
   482.84         3.5246
   482.98         3.5173
   483.12         3.5075
   483.26         3.4951
   483.40         3.4799
   483.54         3.4624
   483.68         3.4422
   483.82         3.4184
   483.96         3.3895
   484.10         3.3540
   484.24         3.3106
   484.38         3.2588
   484.52         3.1989
   484.66         3.1315
   484.80         3.0576
   484.94         2.9785
   485.08         2.8954
   485.22         2.8099
   485.36         2.7238
   485.50         2.6401
   485.64         2.5620
   485.78         2.4936
   485.92         2.4388
   486.06         2.4011
   486.20         2.3824
   486.34         2.3831
   486.48         2.4025
   486.62         2.4390
   486.76         2.4903
   486.90         2.5535
   487.04         2.6252
   487.18         2.7016
   487.32         2.7785
   487.46         2.8522
   487.60         2.9190
   487.74         2.9772
   487.88         3.0266
   488.02         3.0677
   488.16         3.1013
   488.30         3.1284
   488.44         3.1502
   488.58         3.1679
   488.72         3.1825
   488.86         3.1946
   489.00         3.2049
   489.14         3.2139
   489.28         3.2217
   489.42         3.2287
   489.56         3.2353
   489.70         3.2414
   489.84         3.2471
   489.98         3.2521
   490.12         3.2561
   490.26         3.2589
   490.40         3.2607
   490.54         3.2616
   490.68         3.2608
   490.82         3.2578
   490.96         3.2524
   491.10         3.2444
   491.24         3.2340
   491.38         3.2213
   491.52         3.2070
   491.66         3.1923
   491.80         3.1787
   491.94         3.1684
   492.08         3.1633
   492.22         3.1649
   492.36         3.1735
   492.50         3.1883
   492.64         3.2076
   492.78         3.2293
   492.92         3.2515
   493.06         3.2726
   493.20         3.2911
   493.34         3.3060
   493.48         3.3166
   493.62         3.3230
   493.76         3.3255
   493.90         3.3243
   494.04         3.3201
   494.18         3.3140
   494.32         3.3066
   494.46         3.2980
   494.60         3.2884
   494.74         3.2783
   494.88         3.2684
   495.02         3.2591
   495.16         3.2506
   495.30         3.2434
   495.44         3.2376
   495.58         3.2332
   495.72         3.2299
   495.86         3.2272
   496.00         3.2241
   496.14         3.2199
   496.28         3.2137
   496.42         3.2050
   496.56         3.1938
   496.70         3.1806
   496.84         3.1661
   496.98         3.1514
   497.12         3.1376
   497.26         3.1258
   497.40         3.1165
   497.54         3.1099
   497.68         3.1057
   497.82         3.1041
   497.96         3.1053
   498.10         3.1089
   498.24         3.1143
   498.38         3.1206
   498.52         3.1265
   498.66         3.1315
   498.80         3.1357
   498.94         3.1393
   499.08         3.1424
   499.22         3.1450
   499.36         3.1469
   499.50         3.1481
   499.64         3.1488
   499.78         3.1487
   499.92         3.1478
   500.06         3.1460
   500.20         3.1434
   500.34         3.1396
   500.48         3.1342
   500.62         3.1266
   500.76         3.1158
   500.90         3.1019
   501.04         3.0855
   501.18         3.0678
   501.32         3.0498
   501.46         3.0323
   501.60         3.0162
   501.74         3.0021
   501.88         2.9909
   502.02         2.9829
   502.16         2.9780
   502.30         2.9759
   502.44         2.9761
   502.58         2.9784
   502.72         2.9830
   502.86         2.9903
   503.00         3.0004
   503.14         3.0133
   503.28         3.0285
   503.42         3.0452
   503.56         3.0627
   503.70         3.0798
   503.84         3.0949
   503.98         3.1065
   504.12         3.1141
   504.26         3.1174
   504.40         3.1162
   504.54         3.1100
   504.68         3.0985
   504.82         3.0827
   504.96         3.0645
   505.10         3.0456
   505.24         3.0271
   505.38         3.0098
   505.52         2.9939
   505.66         2.9794
   505.80         2.9661
   505.94         2.9538
   506.08         2.9426
   506.22         2.9332
   506.36         2.9258
   506.50         2.9209
   506.64         2.9185
   506.78         2.9187
   506.92         2.9213
   507.06         2.9257
   507.20         2.9314
   507.34         2.9380
   507.48         2.9453
   507.62         2.9523
   507.76         2.9582
   507.90         2.9617
   508.04         2.9627
   508.18         2.9613
   508.32         2.9579
   508.46         2.9526
   508.60         2.9454
   508.74         2.9368
   508.88         2.9277
   509.02         2.9184
   509.16         2.9092
   509.30         2.9002
   509.44         2.8917
   509.58         2.8838
   509.72         2.8765
   509.86         2.8697
   510.00         2.8637
   510.14         2.8587
   510.28         2.8549
   510.42         2.8520
   510.56         2.8499
   510.70         2.8482
   510.84         2.8472
   510.98         2.8473
   511.12         2.8487
   511.26         2.8519
   511.40         2.8573
   511.54         2.8651
   511.68         2.8746
   511.82         2.8848
   511.96         2.8948
   512.10         2.9039
   512.24         2.9114
   512.38         2.9172
   512.52         2.9207
   512.66         2.9210
   512.80         2.9176
   512.94         2.9106
   513.08         2.9008
   513.22         2.8890
   513.36         2.8766
   513.50         2.8647
   513.64         2.8537
   513.78         2.8440
   513.92         2.8357
   514.06         2.8287
   514.20         2.8224
   514.34         2.8163
   514.48         2.8100
   514.62         2.8034
   514.76         2.7965
   514.90         2.7893
   515.04         2.7819
   515.18         2.7744
   515.32         2.7672
   515.46         2.7607
   515.60         2.7554
   515.74         2.7514
   515.88         2.7489
   516.02         2.7479
   516.16         2.7487
   516.30         2.7514
   516.44         2.7558
   516.58         2.7614
   516.72         2.7674
   516.86         2.7728
   517.00         2.7769
   517.14         2.7794
   517.28         2.7799
   517.42         2.7780
   517.56         2.7737
   517.70         2.7674
   517.84         2.7598
   517.98         2.7520
   518.12         2.7447
   518.26         2.7385
   518.40         2.7342
   518.54         2.7320
   518.68         2.7319
   518.82         2.7331
   518.96         2.7355
   519.10         2.7387
   519.24         2.7428
   519.38         2.7475
   519.52         2.7530
   519.66         2.7589
   519.80         2.7648
   519.94         2.7705
   520.08         2.7757
   520.22         2.7798
   520.36         2.7829
   520.50         2.7847
   520.64         2.7851
   520.78         2.7839
   520.92         2.7809
   521.06         2.7765
   521.20         2.7710
   521.34         2.7645
   521.48         2.7570
   521.62         2.7486
   521.76         2.7394
   521.90         2.7292
   522.04         2.7184
   522.18         2.7071
   522.32         2.6957
   522.46         2.6848
   522.60         2.6752
   522.74         2.6673
   522.88         2.6613
   523.02         2.6572
   523.16         2.6552
   523.30         2.6547
   523.44         2.6550
   523.58         2.6555
   523.72         2.6558
   523.86         2.6556
   524.00         2.6544
   524.14         2.6518
   524.28         2.6483
   524.42         2.6440
   524.56         2.6393
   524.70         2.6341
   524.84         2.6284
   524.98         2.6222
   525.12         2.6155
   525.26         2.6085
   525.40         2.6015
   525.54         2.5949
   525.68         2.5890
   525.82         2.5841
   525.96         2.5799
   526.10         2.5765
   526.24         2.5742
   526.38         2.5728
   526.52         2.5722
   526.66         2.5721
   526.80         2.5726
   526.94         2.5735
   527.08         2.5748
   527.22         2.5766
   527.36         2.5786
   527.50         2.5806
   527.64         2.5825
   527.78         2.5842
   527.92         2.5857
   528.06         2.5869
   528.20         2.5878
   528.34         2.5880
   528.48         2.5875
   528.62         2.5860
   528.76         2.5840
   528.90         2.5813
   529.04         2.5779
   529.18         2.5736
   529.32         2.5685
   529.46         2.5626
   529.60         2.5564
   529.74         2.5506
   529.88         2.5461
   530.02         2.5433
   530.16         2.5429
   530.30         2.5447
   530.44         2.5483
   530.58         2.5528
   530.72         2.5572
   530.86         2.5605
   531.00         2.5615
   531.14         2.5597
   531.28         2.5548
   531.42         2.5468
   531.56         2.5361
   531.70         2.5235
   531.84         2.5100
   531.98         2.4970
   532.12         2.4856
   532.26         2.4766
   532.40         2.4703
   532.54         2.4662
   532.68         2.4636
   532.82         2.4618
   532.96         2.4603
   533.10         2.4586
   533.24         2.4563
   533.38         2.4531
   533.52         2.4490
   533.66         2.4445
   533.80         2.4403
   533.94         2.4373
   534.08         2.4358
   534.22         2.4362
   534.36         2.4383
   534.50         2.4417
   534.64         2.4460
   534.78         2.4508
   534.92         2.4558
   535.06         2.4602
   535.20         2.4634
   535.34         2.4651
   535.48         2.4653
   535.62         2.4640
   535.76         2.4611
   535.90         2.4565
   536.04         2.4508
   536.18         2.4446
   536.32         2.4388
   536.46         2.4340
   536.60         2.4300
   536.74         2.4267
   536.88         2.4239
   537.02         2.4220
   537.16         2.4209
   537.30         2.4206
   537.44         2.4207
   537.58         2.4203
   537.72         2.4186
   537.86         2.4153
   538.00         2.4105
   538.14         2.4043
   538.28         2.3970
   538.42         2.3890
   538.56         2.3812
   538.70         2.3746
   538.84         2.3698
   538.98         2.3668
   539.12         2.3652
   539.26         2.3649
   539.40         2.3656
   539.54         2.3673
   539.68         2.3699
   539.82         2.3732
   539.96         2.3765
   540.10         2.3794
   540.24         2.3818
   540.38         2.3842
   540.52         2.3870
   540.66         2.3902
   540.80         2.3931
   540.94         2.3950
   541.08         2.3957
   541.22         2.3950
   541.36         2.3933
   541.50         2.3911
   541.64         2.3887
   541.78         2.3864
   541.92         2.3845
   542.06         2.3830
   542.20         2.3820
   542.34         2.3812
   542.48         2.3802
   542.62         2.3787
   542.76         2.3766
   542.90         2.3739
   543.04         2.3703
   543.18         2.3649
   543.32         2.3574
   543.46         2.3478
   543.60         2.3368
   543.74         2.3256
   543.88         2.3155
   544.02         2.3072
   544.16         2.3009
   544.30         2.2966
   544.44         2.2937
   544.58         2.2921
   544.72         2.2915
   544.86         2.2920
   545.00         2.2935
   545.14         2.2956
   545.28         2.2978
   545.42         2.2994
   545.56         2.3002
   545.70         2.2999
   545.84         2.2988
   545.98         2.2973
   546.12         2.2961
   546.26         2.2958
   546.40         2.2967
   546.54         2.2987
   546.68         2.3010
   546.82         2.3027
   546.96         2.3034
   547.10         2.3029
   547.24         2.3017
   547.38         2.3004
   547.52         2.2993
   547.66         2.2982
   547.80         2.2971
   547.94         2.2955
   548.08         2.2930
   548.22         2.2897
   548.36         2.2861
   548.50         2.2824
   548.64         2.2792
   548.78         2.2764
   548.92         2.2743
   549.06         2.2725
   549.20         2.2709
   549.34         2.2694
   549.48         2.2682
   549.62         2.2671
   549.76         2.2659
   549.90         2.2644
   550.04         2.2623
   550.18         2.2594
   550.32         2.2555
   550.46         2.2507
   550.60         2.2455
   550.74         2.2403
   550.88         2.2359
   551.02         2.2323
   551.16         2.2293
   551.30         2.2267
   551.44         2.2242
   551.58         2.2220
   551.72         2.2199
   551.86         2.2180
   552.00         2.2161
   552.14         2.2140
   552.28         2.2114
   552.42         2.2085
   552.56         2.2053
   552.70         2.2016
   552.84         2.1974
   552.98         2.1925
   553.12         2.1869
   553.26         2.1807
   553.40         2.1747
   553.54         2.1697
   553.68         2.1665
   553.82         2.1657
   553.96         2.1675
   554.10         2.1713
   554.24         2.1759
   554.38         2.1802
   554.52         2.1833
   554.66         2.1846
   554.80         2.1843
   554.94         2.1828
   555.08         2.1802
   555.22         2.1770
   555.36         2.1734
   555.50         2.1698
   555.64         2.1667
   555.78         2.1644
   555.92         2.1632
   556.06         2.1633
   556.20         2.1646
   556.34         2.1667
   556.48         2.1689
   556.62         2.1702
   556.76         2.1699
   556.90         2.1679
   557.04         2.1643
   557.18         2.1596
   557.32         2.1539
   557.46         2.1476
   557.60         2.1410
   557.74         2.1343
   557.88         2.1281
   558.02         2.1225
   558.16         2.1181
   558.30         2.1153
   558.44         2.1147
   558.58         2.1165
   558.72         2.1210
   558.86         2.1278
   559.00         2.1360
   559.14         2.1443
   559.28         2.1516
   559.42         2.1571
   559.56         2.1606
   559.70         2.1619
   559.84         2.1612
   559.98         2.1584
   560.12         2.1541
   560.26         2.1488
   560.40         2.1428
   560.54         2.1364
   560.68         2.1298
   560.82         2.1233
   560.96         2.1170
   561.10         2.1111
   561.24         2.1053
   561.38         2.0996
   561.52         2.0936
   561.66         2.0874
   561.80         2.0811
   561.94         2.0751
   562.08         2.0694
   562.22         2.0641
   562.36         2.0590
   562.50         2.0541
   562.64         2.0494
   562.78         2.0451
   562.92         2.0412
   563.06         2.0382
   563.20         2.0363
   563.34         2.0361
   563.48         2.0383
   563.62         2.0429
   563.76         2.0497
   563.90         2.0582
   564.04         2.0675
   564.18         2.0766
   564.32         2.0843
   564.46         2.0897
   564.60         2.0920
   564.74         2.0908
   564.88         2.0858
   565.02         2.0776
   565.16         2.0670
   565.30         2.0553
   565.44         2.0441
   565.58         2.0343
   565.72         2.0266
   565.86         2.0212
   566.00         2.0180
   566.14         2.0164
   566.28         2.0156
   566.42         2.0150
   566.56         2.0143
   566.70         2.0133
   566.84         2.0122
   566.98         2.0109
   567.12         2.0093
   567.26         2.0070
   567.40         2.0039
   567.54         2.0002
   567.68         1.9967
   567.82         1.9942
   567.96         1.9933
   568.10         1.9947
   568.24         1.9985
   568.38         2.0048
   568.52         2.0132
   568.66         2.0230
   568.80         2.0334
   568.94         2.0433
   569.08         2.0518
   569.22         2.0581
   569.36         2.0612
   569.50         2.0604
   569.64         2.0553
   569.78         2.0459
   569.92         2.0329
   570.06         2.0176
   570.20         2.0017
   570.34         1.9864
   570.48         1.9729
   570.62         1.9620
   570.76         1.9538
   570.90         1.9481
   571.04         1.9440
   571.18         1.9408
   571.32         1.9374
   571.46         1.9334
   571.60         1.9283
   571.74         1.9221
   571.88         1.9149
   572.02         1.9073
   572.16         1.9000
   572.30         1.8937
   572.44         1.8889
   572.58         1.8857
   572.72         1.8842
   572.86         1.8843
   573.00         1.8855
   573.14         1.8873
   573.28         1.8892
   573.42         1.8905
   573.56         1.8911
   573.70         1.8909
   573.84         1.8898
   573.98         1.8885
   574.12         1.8875
   574.26         1.8870
   574.40         1.8875
   574.54         1.8889
   574.68         1.8911
   574.82         1.8938
   574.96         1.8963
   575.10         1.8978
   575.24         1.8979
   575.38         1.8965
   575.52         1.8939
   575.66         1.8903
   575.80         1.8860
   575.94         1.8818
   576.08         1.8781
   576.22         1.8752
   576.36         1.8732
   576.50         1.8721
   576.64         1.8718
   576.78         1.8725
   576.92         1.8735
   577.06         1.8745
   577.20         1.8753
   577.34         1.8759
   577.48         1.8761
   577.62         1.8760
   577.76         1.8755
   577.90         1.8748
   578.04         1.8738
   578.18         1.8724
   578.32         1.8706
   578.46         1.8687
   578.60         1.8667
   578.74         1.8646
   578.88         1.8624
   579.02         1.8604
   579.16         1.8586
   579.30         1.8569
   579.44         1.8555
   579.58         1.8544
   579.72         1.8541
   579.86         1.8550
   580.00         1.8573
   580.14         1.8607
   580.28         1.8645
   580.42         1.8681
   580.56         1.8706
   580.70         1.8715
   580.84         1.8705
   580.98         1.8677
   581.12         1.8632
   581.26         1.8577
   581.40         1.8517
   581.54         1.8459
   581.68         1.8407
   581.82         1.8366
   581.96         1.8340
   582.10         1.8330
   582.24         1.8337
   582.38         1.8358
   582.52         1.8390
   582.66         1.8426
   582.80         1.8458
   582.94         1.8484
   583.08         1.8502
   583.22         1.8515
   583.36         1.8530
   583.50         1.8549
   583.64         1.8575
   583.78         1.8607
   583.92         1.8640
   584.06         1.8670
   584.20         1.8690
   584.34         1.8696
   584.48         1.8685
   584.62         1.8654
   584.76         1.8604
   584.90         1.8537
   585.04         1.8461
   585.18         1.8382
   585.32         1.8303
   585.46         1.8230
   585.60         1.8169
   585.74         1.8122
   585.88         1.8090
   586.02         1.8069
   586.16         1.8051
   586.30         1.8031
   586.44         1.8004
   586.58         1.7964
   586.72         1.7908
   586.86         1.7836
   587.00         1.7750
   587.14         1.7655
   587.28         1.7560
   587.42         1.7474
   587.56         1.7406
   587.70         1.7361
   587.84         1.7339
   587.98         1.7336
   588.12         1.7348
   588.26         1.7367
   588.40         1.7388
   588.54         1.7402
   588.68         1.7403
   588.82         1.7390
   588.96         1.7367
   589.10         1.7338
   589.24         1.7307
   589.38         1.7281
   589.52         1.7268
   589.66         1.7271
   589.80         1.7296
   589.94         1.7343
   590.08         1.7410
   590.22         1.7487
   590.36         1.7569
   590.50         1.7645
   590.64         1.7708
   590.78         1.7755
   590.92         1.7784
   591.06         1.7799
   591.20         1.7802
   591.34         1.7798
   591.48         1.7792
   591.62         1.7784
   591.76         1.7771
   591.90         1.7755
   592.04         1.7735
   592.18         1.7708
   592.32         1.7674
   592.46         1.7629
   592.60         1.7574
   592.74         1.7508
   592.88         1.7436
   593.02         1.7367
   593.16         1.7307
   593.30         1.7264
   593.44         1.7242
   593.58         1.7242
   593.72         1.7263
   593.86         1.7303
   594.00         1.7356
   594.14         1.7411
   594.28         1.7456
   594.42         1.7483
   594.56         1.7488
   594.70         1.7468
   594.84         1.7422
   594.98         1.7353
   595.12         1.7266
   595.26         1.7168
   595.40         1.7071
   595.54         1.6986
   595.68         1.6917
   595.82         1.6865
   595.96         1.6825
   596.10         1.6797
   596.24         1.6782
   596.38         1.6781
   596.52         1.6791
   596.66         1.6803
   596.80         1.6811
   596.94         1.6809
   597.08         1.6794
   597.22         1.6765
   597.36         1.6722
   597.50         1.6670
   597.64         1.6616
   597.78         1.6567
   597.92         1.6530
   598.06         1.6504
   598.20         1.6486
   598.34         1.6471
   598.48         1.6457
   598.62         1.6446
   598.76         1.6438
   598.90         1.6434
   599.04         1.6432
   599.18         1.6429
   599.32         1.6423
   599.46         1.6416
   599.60         1.6411
   599.74         1.6409
   599.88         1.6411
   600.02         1.6419
   600.16         1.6433
   600.30         1.6449
   600.44         1.6463
   600.58         1.6469
   600.72         1.6465
   600.86         1.6450
   601.00         1.6425
   601.14         1.6391
   601.28         1.6347
   601.42         1.6295
   601.56         1.6236
   601.70         1.6177
   601.84         1.6120
   601.98         1.6068
   602.12         1.6022
   602.26         1.5982
   602.40         1.5951
   602.54         1.5931
   602.68         1.5922
   602.82         1.5923
   602.96         1.5927
   603.10         1.5928
   603.24         1.5922
   603.38         1.5905
   603.52         1.5879
   603.66         1.5846
   603.80         1.5809
   603.94         1.5770
   604.08         1.5732
   604.22         1.5699
   604.36         1.5672
   604.50         1.5649
   604.64         1.5627
   604.78         1.5605
   604.92         1.5583
   605.06         1.5559
   605.20         1.5533
   605.34         1.5502
   605.48         1.5467
   605.62         1.5432
   605.76         1.5406
   605.90         1.5398
   606.04         1.5414
   606.18         1.5456
   606.32         1.5520
   606.46         1.5597
   606.60         1.5677
   606.74         1.5752
   606.88         1.5815
   607.02         1.5860
   607.16         1.5887
   607.30         1.5899
   607.44         1.5900
   607.58         1.5893
   607.72         1.5882
   607.86         1.5871
   608.00         1.5866
   608.14         1.5874
   608.28         1.5896
   608.42         1.5933
   608.56         1.5980
   608.70         1.6032
   608.84         1.6083
   608.98         1.6125
   609.12         1.6149
   609.26         1.6149
   609.40         1.6123
   609.54         1.6072
   609.68         1.6003
   609.82         1.5922
   609.96         1.5835
   610.10         1.5747
   610.24         1.5662
   610.38         1.5590
   610.52         1.5538
   610.66         1.5510
   610.80         1.5505
   610.94         1.5516
   611.08         1.5535
   611.22         1.5554
   611.36         1.5570
   611.50         1.5579
   611.64         1.5580
   611.78         1.5578
   611.92         1.5576
   612.06         1.5578
   612.20         1.5589
   612.34         1.5610
   612.48         1.5638
   612.62         1.5669
   612.76         1.5701
   612.90         1.5732
   613.04         1.5761
   613.18         1.5789
   613.32         1.5815
   613.46         1.5837
   613.60         1.5855
   613.74         1.5872
   613.88         1.5891
   614.02         1.5912
   614.16         1.5934
   614.30         1.5953
   614.44         1.5965
   614.58         1.5969
   614.72         1.5968
   614.86         1.5961
   615.00         1.5952
   615.14         1.5943
   615.28         1.5937
   615.42         1.5933
   615.56         1.5928
   615.70         1.5920
   615.84         1.5904
   615.98         1.5881
   616.12         1.5851
   616.26         1.5822
   616.40         1.5799
   616.54         1.5784
   616.68         1.5778
   616.82         1.5776
   616.96         1.5776
   617.10         1.5774
   617.24         1.5766
   617.38         1.5746
   617.52         1.5714
   617.66         1.5670
   617.80         1.5615
   617.94         1.5550
   618.08         1.5476
   618.22         1.5397
   618.36         1.5318
   618.50         1.5249
   618.64         1.5193
   618.78         1.5151
   618.92         1.5121
   619.06         1.5099
   619.20         1.5085
   619.34         1.5079
   619.48         1.5081
   619.62         1.5094
   619.76         1.5118
   619.90         1.5152
   620.04         1.5192
   620.18         1.5230
   620.32         1.5262
   620.46         1.5282
   620.60         1.5287
   620.74         1.5275
   620.88         1.5251
   621.02         1.5221
   621.16         1.5187
   621.30         1.5150
   621.44         1.5116
   621.58         1.5087
   621.72         1.5063
   621.86         1.5043
   622.00         1.5028
   622.14         1.5021
   622.28         1.5023
   622.42         1.5039
   622.56         1.5068
   622.70         1.5107
   622.84         1.5151
   622.98         1.5200
   623.12         1.5249
   623.26         1.5296
   623.40         1.5337
   623.54         1.5370
   623.68         1.5396
   623.82         1.5414
   623.96         1.5427
   624.10         1.5432
   624.24         1.5426
   624.38         1.5406
   624.52         1.5374
   624.66         1.5330
   624.80         1.5277
   624.94         1.5218
   625.08         1.5154
   625.22         1.5087
   625.36         1.5022
   625.50         1.4966
   625.64         1.4931
   625.78         1.4922
   625.92         1.4944
   626.06         1.4992
   626.20         1.5060
   626.34         1.5135
   626.48         1.5204
   626.62         1.5254
   626.76         1.5277
   626.90         1.5269
   627.04         1.5232
   627.18         1.5174
   627.32         1.5101
   627.46         1.5025
   627.60         1.4951
   627.74         1.4887
   627.88         1.4841
   628.02         1.4817
   628.16         1.4816
   628.30         1.4830
   628.44         1.4850
   628.58         1.4864
   628.72         1.4864
   628.86         1.4846
   629.00         1.4813
   629.14         1.4769
   629.28         1.4714
   629.42         1.4653
   629.56         1.4591
   629.70         1.4535
   629.84         1.4492
   629.98         1.4464
   630.12         1.4450
   630.26         1.4449
   630.40         1.4455
   630.54         1.4465
   630.68         1.4471
   630.82         1.4468
   630.96         1.4456
   631.10         1.4433
   631.24         1.4401
   631.38         1.4364
   631.52         1.4326
   631.66         1.4291
   631.80         1.4258
   631.94         1.4234
   632.08         1.4225
   632.22         1.4234
   632.36         1.4260
   632.50         1.4297
   632.64         1.4338
   632.78         1.4375
   632.92         1.4406
   633.06         1.4424
   633.20         1.4426
   633.34         1.4411
   633.48         1.4377
   633.62         1.4324
   633.76         1.4256
   633.90         1.4177
   634.04         1.4094
   634.18         1.4018
   634.32         1.3955
   634.46         1.3909
   634.60         1.3879
   634.74         1.3861
   634.88         1.3851
   635.02         1.3842
   635.16         1.3831
   635.30         1.3822
   635.44         1.3817
   635.58         1.3820
   635.72         1.3832
   635.86         1.3854
   636.00         1.3886
   636.14         1.3924
   636.28         1.3965
   636.42         1.4003
   636.56         1.4036
   636.70         1.4059
   636.84         1.4070
   636.98         1.4063
   637.12         1.4036
   637.26         1.3992
   637.40         1.3936
   637.54         1.3874
   637.68         1.3816
   637.82         1.3773
   637.96         1.3748
   638.10         1.3743
   638.24         1.3755
   638.38         1.3780
   638.52         1.3814
   638.66         1.3853
   638.80         1.3891
   638.94         1.3923
   639.08         1.3947
   639.22         1.3963
   639.36         1.3972
   639.50         1.3974
   639.64         1.3972
   639.78         1.3968
   639.92         1.3963
   640.06         1.3959
   640.20         1.3958
   640.34         1.3958
   640.48         1.3956
   640.62         1.3947
   640.76         1.3926
   640.90         1.3893
   641.04         1.3849
   641.18         1.3796
   641.32         1.3736
   641.46         1.3673
   641.60         1.3615
   641.74         1.3569
   641.88         1.3538
   642.02         1.3520
   642.16         1.3513
   642.30         1.3513
   642.44         1.3518
   642.58         1.3522
   642.72         1.3526
   642.86         1.3529
   643.00         1.3530
   643.14         1.3528
   643.28         1.3527
   643.42         1.3527
   643.56         1.3529
   643.70         1.3533
   643.84         1.3536
   643.98         1.3537
   644.12         1.3539
   644.26         1.3541
   644.40         1.3541
   644.54         1.3534
   644.68         1.3518
   644.82         1.3496
   644.96         1.3469
   645.10         1.3439
   645.24         1.3409
   645.38         1.3382
   645.52         1.3362
   645.66         1.3350
   645.80         1.3349
   645.94         1.3359
   646.08         1.3379
   646.22         1.3403
   646.36         1.3431
   646.50         1.3460
   646.64         1.3487
   646.78         1.3510
   646.92         1.3524
   647.06         1.3527
   647.20         1.3522
   647.34         1.3516
   647.48         1.3509
   647.62         1.3502
   647.76         1.3495
   647.90         1.3488
   648.04         1.3479
   648.18         1.3467
   648.32         1.3452
   648.46         1.3430
   648.60         1.3403
   648.74         1.3375
   648.88         1.3350
   649.02         1.3337
   649.16         1.3339
   649.30         1.3358
   649.44         1.3396
   649.58         1.3453
   649.72         1.3525
   649.86         1.3604
   650.00         1.3682
   650.14         1.3751
   650.28         1.3807
   650.42         1.3848
   650.56         1.3875
   650.70         1.3891
   650.84         1.3898
   650.98         1.3897
   651.12         1.3889
   651.26         1.3874
   651.40         1.3849
   651.54         1.3814
   651.68         1.3770
   651.82         1.3720
   651.96         1.3666
   652.10         1.3610
   652.24         1.3556
   652.38         1.3505
   652.52         1.3463
   652.66         1.3430
   652.80         1.3407
   652.94         1.3391
   653.08         1.3382
   653.22         1.3375
   653.36         1.3366
   653.50         1.3346
   653.64         1.3310
   653.78         1.3254
   653.92         1.3178
   654.06         1.3083
   654.20         1.2973
   654.34         1.2850
   654.48         1.2716
   654.62         1.2575
   654.76         1.2428
   654.90         1.2276
   655.04         1.2115
   655.18         1.1942
   655.32         1.1753
   655.46         1.1547
   655.60         1.1324
   655.74         1.1089
   655.88         1.0847
   656.02         1.0612
   656.16         1.0399
   656.30         1.0229
   656.44         1.0120
   656.58         1.0083
   656.72         1.0124
   656.86         1.0242
   657.00         1.0434
   657.14         1.0684
   657.28         1.0972
   657.42         1.1272
   657.56         1.1561
   657.70         1.1823
   657.84         1.2050
   657.98         1.2239
   658.12         1.2393
   658.26         1.2512
   658.40         1.2602
   658.54         1.2668
   658.68         1.2718
   658.82         1.2758
   658.96         1.2790
   659.10         1.2815
   659.24         1.2835
   659.38         1.2853
   659.52         1.2869
   659.66         1.2881
   659.80         1.2889
   659.94         1.2894
   660.08         1.2898
   660.22         1.2905
   660.36         1.2915
   660.50         1.2925
   660.64         1.2927
   660.78         1.2912
   660.92         1.2877
   661.06         1.2822
   661.20         1.2753
   661.34         1.2675
   661.48         1.2597
   661.62         1.2534
   661.76         1.2499
   661.90         1.2498
   662.04         1.2532
   662.18         1.2598
   662.32         1.2689
   662.46         1.2795
   662.60         1.2905
   662.74         1.3003
   662.88         1.3074
   663.02         1.3107
   663.16         1.3099
   663.30         1.3050
   663.44         1.2965
   663.58         1.2856
   663.72         1.2736
   663.86         1.2618
   664.00         1.2515
   664.14         1.2436
   664.28         1.2387
   664.42         1.2372
   664.56         1.2387
   664.70         1.2429
   664.84         1.2491
   664.98         1.2563
   665.12         1.2638
   665.26         1.2703
   665.40         1.2751
   665.54         1.2776
   665.68         1.2782
   665.82         1.2770
   665.96         1.2742
   666.10         1.2700
   666.24         1.2648
   666.38         1.2591
   666.52         1.2532
   666.66         1.2474
   666.80         1.2420
   666.94         1.2373
   667.08         1.2334
   667.22         1.2303
   667.36         1.2275
   667.50         1.2245
   667.64         1.2213
   667.78         1.2180
   667.92         1.2148
   668.06         1.2120
   668.20         1.2098
   668.34         1.2085
   668.48         1.2078
   668.62         1.2076
   668.76         1.2077
   668.90         1.2081
   669.04         1.2091
   669.18         1.2107
   669.32         1.2130
   669.46         1.2162
   669.60         1.2202
   669.74         1.2249
   669.88         1.2299
   670.02         1.2346
   670.16         1.2388
   670.30         1.2418
   670.44         1.2429
   670.58         1.2416
   670.72         1.2377
   670.86         1.2313
   671.00         1.2230
   671.14         1.2137
   671.28         1.2043
   671.42         1.1957
   671.56         1.1888
   671.70         1.1837
   671.84         1.1804
   671.98         1.1785
   672.12         1.1777
   672.26         1.1775
   672.40         1.1773
   672.54         1.1768
   672.68         1.1756
   672.82         1.1731
   672.96         1.1693
   673.10         1.1646
   673.24         1.1598
   673.38         1.1557
   673.52         1.1529
   673.66         1.1517
   673.80         1.1522
   673.94         1.1542
   674.08         1.1572
   674.22         1.1610
   674.36         1.1651
   674.50         1.1697
   674.64         1.1748
   674.78         1.1802
   674.92         1.1855
   675.06         1.1902
   675.20         1.1939
   675.34         1.1963
   675.48         1.1974
   675.62         1.1976
   675.76         1.1974
   675.90         1.1973
   676.04         1.1972
   676.18         1.1973
   676.32         1.1971
   676.46         1.1963
   676.60         1.1947
   676.74         1.1927
   676.88         1.1904
   677.02         1.1878
   677.16         1.1852
   677.30         1.1826
   677.44         1.1801
   677.58         1.1780
   677.72         1.1765
   677.86         1.1760
   678.00         1.1765
   678.14         1.1778
   678.28         1.1794
   678.42         1.1806
   678.56         1.1807
   678.70         1.1791
   678.84         1.1754
   678.98         1.1698
   679.12         1.1629
   679.26         1.1558
   679.40         1.1492
   679.54         1.1438
   679.68         1.1403
   679.82         1.1390
   679.96         1.1401
   680.10         1.1434
   680.24         1.1484
   680.38         1.1543
   680.52         1.1601
   680.66         1.1651
   680.80         1.1687
   680.94         1.1706
   681.08         1.1706
   681.22         1.1688
   681.36         1.1651
   681.50         1.1600
   681.64         1.1541
   681.78         1.1481
   681.92         1.1424
   682.06         1.1373
   682.20         1.1326
   682.34         1.1283
   682.48         1.1239
   682.62         1.1194
   682.76         1.1147
   682.90         1.1098
   683.04         1.1053
   683.18         1.1016
   683.32         1.0993
   683.46         1.0987
   683.60         1.0999
   683.74         1.1027
   683.88         1.1069
   684.02         1.1125
   684.16         1.1194
   684.30         1.1268
   684.44         1.1339
   684.58         1.1399
   684.72         1.1445
   684.86         1.1474
   685.00         1.1483
   685.14         1.1476
   685.28         1.1456
   685.42         1.1426
   685.56         1.1384
   685.70         1.1322
   685.84         1.1230
   685.98         1.1102
   686.12         1.0931
   686.26         1.0718
   686.40         1.0468
   686.54         1.0194
   686.68         0.9916
   686.82         0.9653
   686.96         0.9423
   687.10         0.9247
   687.24         0.9137
   687.38         0.9100
   687.52         0.9134
   687.66         0.9227
   687.80         0.9357
   687.94         0.9503
   688.08         0.9641
   688.22         0.9754
   688.36         0.9827
   688.50         0.9859
   688.64         0.9853
   688.78         0.9819
   688.92         0.9769
   689.06         0.9719
   689.20         0.9680
   689.34         0.9660
   689.48         0.9661
   689.62         0.9684
   689.76         0.9727
   689.90         0.9788
   690.04         0.9866
   690.18         0.9958
   690.32         1.0058
   690.46         1.0164
   690.60         1.0277
   690.74         1.0392
   690.88         1.0508
   691.02         1.0623
   691.16         1.0734
   691.30         1.0837
   691.44         1.0927
   691.58         1.1002
   691.72         1.1056
   691.86         1.1086
   692.00         1.1092
   692.14         1.1076
   692.28         1.1042
   692.42         1.0995
   692.56         1.0938
   692.70         1.0874
   692.84         1.0806
   692.98         1.0739
   693.12         1.0677
   693.26         1.0625
   693.40         1.0588
   693.54         1.0566
   693.68         1.0561
   693.82         1.0568
   693.96         1.0584
   694.10         1.0607
   694.24         1.0635
   694.38         1.0663
   694.52         1.0689
   694.66         1.0709
   694.80         1.0725
   694.94         1.0736
   695.08         1.0745
   695.22         1.0753
   695.36         1.0767
   695.50         1.0790
   695.64         1.0824
   695.78         1.0868
   695.92         1.0922
   696.06         1.0987
   696.20         1.1062
   696.34         1.1145
   696.48         1.1233
   696.62         1.1324
   696.76         1.1411
   696.90         1.1490
   697.04         1.1557
   697.18         1.1608
   697.32         1.1641
   697.46         1.1659
   697.60         1.1661
   697.74         1.1649
   697.88         1.1626
   698.02         1.1597
   698.16         1.1562
   698.30         1.1523
   698.44         1.1482
   698.58         1.1441
   698.72         1.1400
   698.86         1.1357
   699.00         1.1309
   699.14         1.1252
   699.28         1.1186
   699.42         1.1109
   699.56         1.1024
   699.70         1.0931
   699.84         1.0835
   699.98         1.0742
   700.12         1.0659
   700.26         1.0593
   700.40         1.0551
   700.54         1.0537
   700.68         1.0549
   700.82         1.0584
   700.96         1.0636
   701.10         1.0697
   701.24         1.0757
   701.38         1.0804
   701.52         1.0834
   701.66         1.0843
   701.80         1.0830
   701.94         1.0800
   702.08         1.0757
   702.22         1.0707
   702.36         1.0659
   702.50         1.0617
   702.64         1.0588
   702.78         1.0570
   702.92         1.0560
   703.06         1.0554
   703.20         1.0548
   703.34         1.0539
   703.48         1.0525
   703.62         1.0507
   703.76         1.0486
   703.90         1.0462
   704.04         1.0437
   704.18         1.0415
   704.32         1.0399
   704.46         1.0392
   704.60         1.0396
   704.74         1.0412
   704.88         1.0435
   705.02         1.0458
   705.16         1.0475
   705.30         1.0481
   705.44         1.0470
   705.58         1.0442
   705.72         1.0400
   705.86         1.0348
   706.00         1.0291
   706.14         1.0233
   706.28         1.0176
   706.42         1.0124
   706.56         1.0077
   706.70         1.0042
   706.84         1.0024
   706.98         1.0026
   707.12         1.0047
   707.26         1.0083
   707.40         1.0128
   707.54         1.0178
   707.68         1.0231
   707.82         1.0285
   707.96         1.0340
   708.10         1.0392
   708.24         1.0441
   708.38         1.0484
   708.52         1.0516
   708.66         1.0530
   708.80         1.0522
   708.94         1.0489
   709.08         1.0429
   709.22         1.0344
   709.36         1.0236
   709.50         1.0112
   709.64         0.9980
   709.78         0.9845
   709.92         0.9715
   710.06         0.9599
   710.20         0.9503
   710.34         0.9431
   710.48         0.9382
   710.62         0.9354
   710.76         0.9343
   710.90         0.9345
   711.04         0.9359
   711.18         0.9386
   711.32         0.9429
   711.46         0.9489
   711.60         0.9566
   711.74         0.9658
   711.88         0.9764
   712.02         0.9882
   712.16         1.0011
   712.30         1.0148
   712.44         1.0289
   712.58         1.0427
   712.72         1.0555
   712.86         1.0666
   713.00         1.0758
   713.14         1.0831
   713.28         1.0885
   713.42         1.0921
   713.56         1.0943
   713.70         1.0953
   713.84         1.0949
   713.98         1.0929
   714.12         1.0891
   714.26         1.0837
   714.40         1.0771
   714.54         1.0700
   714.68         1.0632
   714.82         1.0570
   714.96         1.0516
   715.10         1.0466
   715.24         1.0416
   715.38         1.0369
   715.52         1.0326
   715.66         1.0288
   715.80         1.0254
   715.94         1.0225
   716.08         1.0203
   716.22         1.0187
   716.36         1.0174
   716.50         1.0162
   716.64         1.0151
   716.78         1.0143
   716.92         1.0142
   717.06         1.0149
   717.20         1.0160
   717.34         1.0169
   717.48         1.0166
   717.62         1.0145
   717.76         1.0107
   717.90         1.0052
   718.04         0.9980
   718.18         0.9890
   718.32         0.9784
   718.46         0.9663
   718.60         0.9533
   718.74         0.9396
   718.88         0.9259
   719.02         0.9128
   719.16         0.9013
   719.30         0.8925
   719.44         0.8867
   719.58         0.8843
   719.72         0.8852
   719.86         0.8891
   720.00         0.8959
   720.14         0.9054
   720.28         0.9177
   720.42         0.9324
   720.56         0.9486
   720.70         0.9656
   720.84         0.9829
   720.98         0.9997
   721.12         1.0152
   721.26         1.0289
   721.40         1.0400
   721.54         1.0483
   721.68         1.0538
   721.82         1.0566
   721.96         1.0574
   722.10         1.0563
   722.24         1.0539
   722.38         1.0500
   722.52         1.0445
   722.66         1.0376
   722.80         1.0298
   722.94         1.0217
   723.08         1.0137
   723.22         1.0065
   723.36         1.0006
   723.50         0.9960
   723.64         0.9928
   723.78         0.9910
   723.92         0.9906
   724.06         0.9912
   724.20         0.9923
   724.34         0.9932
   724.48         0.9933
   724.62         0.9916
   724.76         0.9879
   724.90         0.9822
   725.04         0.9753
   725.18         0.9678
   725.32         0.9606
   725.46         0.9539
   725.60         0.9481
   725.74         0.9433
   725.88         0.9395
   726.02         0.9368
   726.16         0.9348
   726.30         0.9333
   726.44         0.9321
   726.58         0.9312
   726.72         0.9303
   726.86         0.9295
   727.00         0.9290
   727.14         0.9293
   727.28         0.9312
   727.42         0.9348
   727.56         0.9403
   727.70         0.9473
   727.84         0.9554
   727.98         0.9639
   728.12         0.9722
   728.26         0.9798
   728.40         0.9865
   728.54         0.9919
   728.68         0.9957
   728.82         0.9979
   728.96         0.9986
   729.10         0.9981
   729.24         0.9963
   729.38         0.9931
   729.52         0.9885
   729.66         0.9829
   729.80         0.9767
   729.94         0.9700
   730.08         0.9627
   730.22         0.9547
   730.36         0.9461
   730.50         0.9372
   730.64         0.9288
   730.78         0.9217
   730.92         0.9171
   731.06         0.9161
   731.20         0.9191
   731.34         0.9262
   731.48         0.9367
   731.62         0.9494
   731.76         0.9628
   731.90         0.9753
   732.04         0.9859
   732.18         0.9938
   732.32         0.9989
   732.46         1.0011
   732.60         1.0000
   732.74         0.9957
   732.88         0.9889
   733.02         0.9806
   733.16         0.9721
   733.30         0.9642
   733.44         0.9574
   733.58         0.9520
   733.72         0.9479
   733.86         0.9448
   734.00         0.9426
   734.14         0.9411
   734.28         0.9405
   734.42         0.9413
   734.56         0.9434
   734.70         0.9466
   734.84         0.9509
   734.98         0.9558
   735.12         0.9610
   735.26         0.9656
   735.40         0.9690
   735.54         0.9705
   735.68         0.9695
   735.82         0.9655
   735.96         0.9588
   736.10         0.9496
   736.24         0.9386
   736.38         0.9267
   736.52         0.9150
   736.66         0.9043
   736.80         0.8955
   736.94         0.8890
   737.08         0.8851
   737.22         0.8837
   737.36         0.8852
   737.50         0.8895
   737.64         0.8965
   737.78         0.9057
   737.92         0.9162
   738.06         0.9274
   738.20         0.9386
   738.34         0.9492
   738.48         0.9585
   738.62         0.9662
   738.76         0.9715
   738.90         0.9743
   739.04         0.9741
   739.18         0.9709
   739.32         0.9648
   739.46         0.9560
   739.60         0.9453
   739.74         0.9333
   739.88         0.9211
   740.02         0.9094
   740.16         0.8988
   740.30         0.8896
   740.44         0.8817
   740.58         0.8751
   740.72         0.8696
   740.86         0.8648
   741.00         0.8606
   741.14         0.8571
   741.28         0.8545
   741.42         0.8531
   741.56         0.8529
   741.70         0.8538
   741.84         0.8560
   741.98         0.8595
   742.12         0.8642
   742.26         0.8699
   742.40         0.8760
   742.54         0.8817
   742.68         0.8861
   742.82         0.8885
   742.96         0.8885
   743.10         0.8861
   743.24         0.8817
   743.38         0.8760
   743.52         0.8699
   743.66         0.8642
   743.80         0.8595
   743.94         0.8560
   744.08         0.8538
   744.22         0.8529
