# File HD15866
# Wavelength [nm]    Normalized Amplitude
   349.70         12.9311
   349.84         12.9487
   349.98         12.9846
   350.12         13.0297
   350.26         13.0777
   350.40         13.1256
   350.54         13.1726
   350.68         13.2168
   350.82         13.2542
   350.96         13.2796
   351.10         13.2885
   351.24         13.2796
   351.38         13.2542
   351.52         13.2168
   351.66         13.1726
   351.80         13.1256
   351.94         13.0777
   352.08         13.0297
   352.22         12.9846
   352.36         12.9487
   352.50         12.9311
   352.64         12.9413
   352.78         12.9878
   352.92         13.0777
   353.06         13.2127
   353.20         13.3868
   353.34         13.5882
   353.48         13.8034
   353.62         14.0184
   353.76         14.2196
   353.90         14.3944
   354.04         14.5323
   354.18         14.6255
   354.32         14.6690
   354.46         14.6613
   354.60         14.6053
   354.74         14.5072
   354.88         14.3765
   355.02         14.2248
   355.16         14.0618
   355.30         13.8921
   355.44         13.7154
   355.58         13.5287
   355.72         13.3279
   355.86         13.1100
   356.00         12.8764
   356.14         12.6336
   356.28         12.3908
   356.42         12.1583
   356.56         11.9438
   356.70         11.7512
   356.84         11.5799
   356.98         11.4244
   357.12         11.2745
   357.26         11.1176
   357.40         10.9429
   357.54         10.7441
   357.68         10.5215
   357.82         10.2854
   357.96         10.0596
   358.10         9.8766
   358.24         9.7709
   358.38         9.7737
   358.52         9.9068
   358.66         10.1777
   358.80         10.5771
   358.94         11.0789
   359.08         11.6423
   359.22         12.2172
   359.36         12.7526
   359.50         13.2050
   359.64         13.5430
   359.78         13.7485
   359.92         13.8186
   360.06         13.7668
   360.20         13.6204
   360.34         13.4179
   360.48         13.2000
   360.62         12.9967
   360.76         12.8235
   360.90         12.6876
   361.04         12.5923
   361.18         12.5386
   361.32         12.5288
   361.46         12.5671
   361.60         12.6577
   361.74         12.7993
   361.88         12.9828
   362.02         13.1928
   362.16         13.4112
   362.30         13.6202
   362.44         13.8065
   362.58         13.9655
   362.72         14.0993
   362.86         14.2126
   363.00         14.3096
   363.14         14.3922
   363.28         14.4617
   363.42         14.5227
   363.56         14.5811
   363.70         14.6416
   363.84         14.7083
   363.98         14.7843
   364.12         14.8700
   364.26         14.9610
   364.40         15.0509
   364.54         15.1375
   364.68         15.2280
   364.82         15.3379
   364.96         15.4843
   365.10         15.6772
   365.24         15.9142
   365.38         16.1816
   365.52         16.4579
   365.66         16.7187
   365.80         16.9396
   365.94         17.1014
   366.08         17.1937
   366.22         17.2182
   366.36         17.1875
   366.50         17.1196
   366.64         17.0289
   366.78         16.9234
   366.92         16.8081
   367.06         16.6897
   367.20         16.5771
   367.34         16.4763
   367.48         16.3864
   367.62         16.3005
   367.76         16.2129
   367.90         16.1262
   368.04         16.0504
   368.18         15.9980
   368.32         15.9788
   368.46         15.9996
   368.60         16.0672
   368.74         16.1882
   368.88         16.3638
   369.02         16.5853
   369.16         16.8323
   369.30         17.0771
   369.44         17.2923
   369.58         17.4550
   369.72         17.5488
   369.86         17.5643
   370.00         17.5023
   370.14         17.3783
   370.28         17.2223
   370.42         17.0708
   370.56         16.9548
   370.70         16.8900
   370.84         16.8739
   370.98         16.8918
   371.12         16.9257
   371.26         16.9613
   371.40         16.9864
   371.54         16.9862
   371.68         16.9457
   371.82         16.8550
   371.96         16.7127
   372.10         16.5226
   372.24         16.2906
   372.38         16.0257
   372.52         15.7428
   372.66         15.4641
   372.80         15.2146
   372.94         15.0120
   373.08         14.8608
   373.22         14.7533
   373.36         14.6739
   373.50         14.6063
   373.64         14.5387
   373.78         14.4666
   373.92         14.3933
   374.06         14.3289
   374.20         14.2866
   374.34         14.2800
   374.48         14.3182
   374.62         14.4007
   374.76         14.5201
   374.90         14.6712
   375.04         14.8532
   375.18         15.0670
   375.32         15.3083
   375.46         15.5611
   375.60         15.7985
   375.74         15.9922
   375.88         16.1226
   376.02         16.1867
   376.16         16.1985
   376.30         16.1854
   376.44         16.1828
   376.58         16.2276
   376.72         16.3473
   376.86         16.5526
   377.00         16.8370
   377.14         17.1820
   377.28         17.5605
   377.42         17.9425
   377.56         18.2960
   377.70         18.5903
   377.84         18.8008
   377.98         18.9099
   378.12         18.9066
   378.26         18.7877
   378.40         18.5595
   378.54         18.2379
   378.68         17.8476
   378.82         17.4202
   378.96         16.9936
   379.10         16.6089
   379.24         16.3027
   379.38         16.1006
   379.52         16.0151
   379.66         16.0480
   379.80         16.1910
   379.94         16.4220
   380.08         16.7064
   380.22         17.0045
   380.36         17.2768
   380.50         17.4875
   380.64         17.6050
   380.78         17.6051
   380.92         17.4770
   381.06         17.2240
   381.20         16.8607
   381.34         16.4090
   381.48         15.8948
   381.62         15.3462
   381.76         14.7868
   381.90         14.2338
   382.04         13.7000
   382.18         13.1970
   382.32         12.7358
   382.46         12.3216
   382.60         11.9534
   382.74         11.6320
   382.88         11.3662
   383.02         11.1718
   383.16         11.0650
   383.30         11.0561
   383.44         11.1468
   383.58         11.3300
   383.72         11.5890
   383.86         11.9008
   384.00         12.2414
   384.14         12.5888
   384.28         12.9225
   384.42         13.2206
   384.56         13.4606
   384.70         13.6252
   384.84         13.7094
   384.98         13.7214
   385.12         13.6773
   385.26         13.5992
   385.40         13.5114
   385.54         13.4330
   385.68         13.3722
   385.82         13.3285
   385.96         13.3005
   386.10         13.2912
   386.24         13.3065
   386.38         13.3491
   386.52         13.4145
   386.66         13.4921
   386.80         13.5688
   386.94         13.6335
   387.08         13.6808
   387.22         13.7121
   387.36         13.7343
   387.50         13.7583
   387.64         13.7935
   387.78         13.8483
   387.92         13.9319
   388.06         14.0534
   388.20         14.2208
   388.34         14.4428
   388.48         14.7293
   388.62         15.0872
   388.76         15.5140
   388.90         15.9933
   389.04         16.4954
   389.18         16.9871
   389.32         17.4426
   389.46         17.8465
   389.60         18.1935
   389.74         18.4852
   389.88         18.7279
   390.02         18.9325
   390.16         19.1150
   390.30         19.2922
   390.44         19.4761
   390.58         19.6672
   390.72         19.8531
   390.86         20.0135
   391.00         20.1274
   391.14         20.1745
   391.28         20.1353
   391.42         19.9881
   391.56         19.7092
   391.70         19.2770
   391.84         18.6783
   391.98         17.9118
   392.12         16.9910
   392.26         15.9448
   392.40         14.8184
   392.54         13.6708
   392.68         12.5687
   392.82         11.5794
   392.96         10.7641
   393.10         10.1719
   393.24         9.8388
   393.38         9.7867
   393.52         10.0220
   393.66         10.5320
   393.80         11.2808
   393.94         12.2118
   394.08         13.2554
   394.22         14.3379
   394.36         15.3912
   394.50         16.3607
   394.64         17.2071
   394.78         17.9021
   394.92         18.4248
   395.06         18.7579
   395.20         18.8850
   395.34         18.7907
   395.48         18.4643
   395.62         17.9074
   395.76         17.1430
   395.90         16.2194
   396.04         15.2060
   396.18         14.1863
   396.32         13.2493
   396.46         12.4805
   396.60         11.9557
   396.74         11.7325
   396.88         11.8426
   397.02         12.2876
   397.16         13.0395
   397.30         14.0426
   397.44         15.2225
   397.58         16.4974
   397.72         17.7879
   397.86         19.0241
   398.00         20.1501
   398.14         21.1296
   398.28         21.9484
   398.42         22.6100
   398.56         23.1300
   398.70         23.5327
   398.84         23.8471
   398.98         24.1002
   399.12         24.3122
   399.26         24.4924
   399.40         24.6430
   399.54         24.7671
   399.68         24.8707
   399.82         24.9633
   399.96         25.0557
   400.10         25.1571
   400.24         25.2732
   400.38         25.4059
   400.52         25.5548
   400.66         25.7170
   400.80         25.8886
   400.94         26.0647
   401.08         26.2402
   401.22         26.4126
   401.36         26.5798
   401.50         26.7348
   401.64         26.8641
   401.78         26.9494
   401.92         26.9746
   402.06         26.9340
   402.20         26.8331
   402.34         26.6843
   402.48         26.5065
   402.62         26.3213
   402.76         26.1506
   402.90         26.0125
   403.04         25.9170
   403.18         25.8626
   403.32         25.8382
   403.46         25.8316
   403.60         25.8349
   403.74         25.8448
   403.88         25.8582
   404.02         25.8683
   404.16         25.8627
   404.30         25.8281
   404.44         25.7549
   404.58         25.6435
   404.72         25.5061
   404.86         25.3609
   405.00         25.2221
   405.14         25.0942
   405.28         24.9744
   405.42         24.8604
   405.56         24.7517
   405.70         24.6507
   405.84         24.5633
   405.98         24.4999
   406.12         24.4723
   406.26         24.4846
   406.40         24.5288
   406.54         24.5889
   406.68         24.6496
   406.82         24.7042
   406.96         24.7547
   407.10         24.8065
   407.24         24.8666
   407.38         24.9427
   407.52         25.0419
   407.66         25.1681
   407.80         25.3232
   407.94         25.5071
   408.08         25.7141
   408.22         25.9293
   408.36         26.1294
   408.50         26.2852
   408.64         26.3672
   408.78         26.3474
   408.92         26.2030
   409.06         25.9270
   409.20         25.5357
   409.34         25.0668
   409.48         24.5700
   409.62         24.0951
   409.76         23.6865
   409.90         23.3841
   410.04         23.2220
   410.18         23.2226
   410.32         23.3912
   410.46         23.7118
   410.60         24.1508
   410.74         24.6631
   410.88         25.2001
   411.02         25.7151
   411.16         26.1675
   411.30         26.5273
   411.44         26.7771
   411.58         26.9176
   411.72         26.9654
   411.86         26.9427
   412.00         26.8692
   412.14         26.7612
   412.28         26.6350
   412.42         26.5096
   412.56         26.4063
   412.70         26.3452
   412.84         26.3362
   412.98         26.3730
   413.12         26.4377
   413.26         26.5113
   413.40         26.5816
   413.54         26.6417
   413.68         26.6853
   413.82         26.7052
   413.96         26.6945
   414.10         26.6466
   414.24         26.5582
   414.38         26.4304
   414.52         26.2708
   414.66         26.0959
   414.80         25.9293
   414.94         25.7953
   415.08         25.7123
   415.22         25.6882
   415.36         25.7201
   415.50         25.7959
   415.64         25.9004
   415.78         26.0197
   415.92         26.1408
   416.06         26.2477
   416.20         26.3209
   416.34         26.3422
   416.48         26.2991
   416.62         26.1883
   416.76         26.0181
   416.90         25.8071
   417.04         25.5822
   417.18         25.3726
   417.32         25.2022
   417.46         25.0852
   417.60         25.0268
   417.74         25.0255
   417.88         25.0754
   418.02         25.1674
   418.16         25.2897
   418.30         25.4252
   418.44         25.5517
   418.58         25.6462
   418.72         25.6922
   418.86         25.6815
   419.00         25.6153
   419.14         25.5032
   419.28         25.3617
   419.42         25.2129
   419.56         25.0811
   419.70         24.9894
   419.84         24.9566
   419.98         24.9953
   420.12         25.1095
   420.26         25.2950
   420.40         25.5388
   420.54         25.8216
   420.68         26.1212
   420.82         26.4159
   420.96         26.6852
   421.10         26.9091
   421.24         27.0671
   421.38         27.1396
   421.52         27.1167
   421.66         27.0064
   421.80         26.8326
   421.94         26.6268
   422.08         26.4189
   422.22         26.2313
   422.36         26.0777
   422.50         25.9640
   422.64         25.8910
   422.78         25.8567
   422.92         25.8596
   423.06         25.9005
   423.20         25.9797
   423.34         26.0920
   423.48         26.2227
   423.62         26.3494
   423.76         26.4484
   423.90         26.5058
   424.04         26.5247
   424.18         26.5222
   424.32         26.5162
   424.46         26.5144
   424.60         26.5107
   424.74         26.4906
   424.88         26.4426
   425.02         26.3667
   425.16         26.2761
   425.30         26.1901
   425.44         26.1259
   425.58         26.0907
   425.72         26.0791
   425.86         26.0747
   426.00         26.0566
   426.14         26.0076
   426.28         25.9205
   426.42         25.8011
   426.56         25.6634
   426.70         25.5226
   426.84         25.3907
   426.98         25.2780
   427.12         25.1934
   427.26         25.1415
   427.40         25.1244
   427.54         25.1414
   427.68         25.1846
   427.82         25.2360
   427.96         25.2716
   428.10         25.2689
   428.24         25.2124
   428.38         25.0938
   428.52         24.9114
   428.66         24.6666
   428.80         24.3624
   428.94         24.0037
   429.08         23.5968
   429.22         23.1479
   429.36         22.6634
   429.50         22.1508
   429.64         21.6197
   429.78         21.0829
   429.92         20.5613
   430.06         20.0865
   430.20         19.7011
   430.34         19.4546
   430.48         19.3968
   430.62         19.5659
   430.76         19.9741
   430.90         20.6018
   431.04         21.3982
   431.18         22.2888
   431.32         23.1925
   431.46         24.0421
   431.60         24.7930
   431.74         25.4183
   431.88         25.9040
   432.02         26.2487
   432.16         26.4656
   432.30         26.5794
   432.44         26.6169
   432.58         26.5972
   432.72         26.5282
   432.86         26.4113
   433.00         26.2477
   433.14         26.0405
   433.28         25.7957
   433.42         25.5252
   433.56         25.2480
   433.70         24.9892
   433.84         24.7763
   433.98         24.6387
   434.12         24.6047
   434.26         24.6912
   434.40         24.8981
   434.54         25.2101
   434.68         25.6012
   434.82         26.0391
   434.96         26.4891
   435.10         26.9217
   435.24         27.3199
   435.38         27.6802
   435.52         28.0086
   435.66         28.3131
   435.80         28.5965
   435.94         28.8523
   436.08         29.0648
   436.22         29.2143
   436.36         29.2854
   436.50         29.2742
   436.64         29.1908
   436.78         29.0539
   436.92         28.8776
   437.06         28.6642
   437.20         28.4111
   437.34         28.1213
   437.48         27.8058
   437.62         27.4802
   437.76         27.1596
   437.90         26.8574
   438.04         26.5866
   438.18         26.3600
   438.32         26.1924
   438.46         26.0994
   438.60         26.0917
   438.74         26.1696
   438.88         26.3253
   439.02         26.5442
   439.16         26.8028
   439.30         27.0692
   439.44         27.3113
   439.58         27.5050
   439.72         27.6440
   439.86         27.7436
   440.00         27.8289
   440.14         27.9187
   440.28         28.0199
   440.42         28.1337
   440.56         28.2625
   440.70         28.4095
   440.84         28.5756
   440.98         28.7578
   441.12         28.9485
   441.26         29.1348
   441.40         29.3038
   441.54         29.4484
   441.68         29.5664
   441.82         29.6573
   441.96         29.7219
   442.10         29.7612
   442.24         29.7747
   442.38         29.7642
   442.52         29.7354
   442.66         29.6954
   442.80         29.6501
   442.94         29.6047
   443.08         29.5674
   443.22         29.5496
   443.36         29.5609
   443.50         29.6068
   443.64         29.6878
   443.78         29.8018
   443.92         29.9428
   444.06         30.0979
   444.20         30.2449
   444.34         30.3561
   444.48         30.4062
   444.62         30.3771
   444.76         30.2618
   444.90         30.0667
   445.04         29.8123
   445.18         29.5263
   445.32         29.2353
   445.46         28.9601
   445.60         28.7186
   445.74         28.5304
   445.88         28.4159
   446.02         28.3914
   446.16         28.4659
   446.30         28.6395
   446.44         28.9020
   446.58         29.2309
   446.72         29.5905
   446.86         29.9409
   447.00         30.2523
   447.14         30.5105
   447.28         30.7148
   447.42         30.8709
   447.56         30.9831
   447.70         31.0532
   447.84         31.0821
   447.98         31.0721
   448.12         31.0271
   448.26         30.9542
   448.40         30.8663
   448.54         30.7804
   448.68         30.7111
   448.82         30.6665
   448.96         30.6492
   449.10         30.6602
   449.24         30.7012
   449.38         30.7757
   449.52         30.8916
   449.66         31.0572
   449.80         31.2730
   449.94         31.5258
   450.08         31.7904
   450.22         32.0384
   450.36         32.2472
   450.50         32.4026
   450.64         32.4980
   450.78         32.5327
   450.92         32.5107
   451.06         32.4411
   451.20         32.3326
   451.34         32.1899
   451.48         32.0129
   451.62         31.8018
   451.76         31.5581
   451.90         31.2837
   452.04         30.9805
   452.18         30.6522
   452.32         30.3109
   452.46         29.9773
   452.60         29.6749
   452.74         29.4244
   452.88         29.2425
   453.02         29.1409
   453.16         29.1238
   453.30         29.1860
   453.44         29.3118
   453.58         29.4754
   453.72         29.6458
   453.86         29.7941
   454.00         29.8991
   454.14         29.9503
   454.28         29.9501
   454.42         29.9127
   454.56         29.8597
   454.70         29.8164
   454.84         29.8084
   454.98         29.8553
   455.12         29.9619
   455.26         30.1183
   455.40         30.3071
   455.54         30.5122
   455.68         30.7176
   455.82         30.9053
   455.96         31.0613
   456.10         31.1795
   456.24         31.2624
   456.38         31.3202
   456.52         31.3637
   456.66         31.3976
   456.80         31.4195
   456.94         31.4251
   457.08         31.4100
   457.22         31.3681
   457.36         31.2940
   457.50         31.1869
   457.64         31.0510
   457.78         30.8942
   457.92         30.7275
   458.06         30.5635
   458.20         30.4135
   458.34         30.2844
   458.48         30.1814
   458.62         30.1093
   458.76         30.0691
   458.90         30.0566
   459.04         30.0621
   459.18         30.0735
   459.32         30.0838
   459.46         30.0973
   459.60         30.1246
   459.74         30.1768
   459.88         30.2619
   460.02         30.3831
   460.16         30.5359
   460.30         30.7082
   460.44         30.8829
   460.58         31.0456
   460.72         31.1888
   460.86         31.3113
   461.00         31.4145
   461.14         31.5018
   461.28         31.5761
   461.42         31.6403
   461.56         31.6994
   461.70         31.7575
   461.84         31.8164
   461.98         31.8751
   462.12         31.9278
   462.26         31.9647
   462.40         31.9749
   462.54         31.9496
   462.68         31.8844
   462.82         31.7814
   462.96         31.6478
   463.10         31.4915
   463.24         31.3180
   463.38         31.1300
   463.52         30.9293
   463.66         30.7198
   463.80         30.5095
   463.94         30.3080
   464.08         30.1244
   464.22         29.9659
   464.36         29.8380
   464.50         29.7465
   464.64         29.6962
   464.78         29.6892
   464.92         29.7245
   465.06         29.7949
   465.20         29.8848
   465.34         29.9701
   465.48         30.0246
   465.62         30.0274
   465.76         29.9679
   465.90         29.8476
   466.04         29.6790
   466.18         29.4850
   466.32         29.2934
   466.46         29.1281
   466.60         29.0035
   466.74         28.9253
   466.88         28.8959
   467.02         28.9163
   467.16         28.9837
   467.30         29.0878
   467.44         29.2139
   467.58         29.3466
   467.72         29.4700
   467.86         29.5703
   468.00         29.6422
   468.14         29.6921
   468.28         29.7325
   468.42         29.7718
   468.56         29.8111
   468.70         29.8462
   468.84         29.8702
   468.98         29.8737
   469.12         29.8475
   469.26         29.7873
   469.40         29.6965
   469.54         29.5853
   469.68         29.4671
   469.82         29.3536
   469.96         29.2525
   470.10         29.1684
   470.24         29.1052
   470.38         29.0686
   470.52         29.0663
   470.66         29.1062
   470.80         29.1935
   470.94         29.3282
   471.08         29.5049
   471.22         29.7143
   471.36         29.9415
   471.50         30.1660
   471.64         30.3655
   471.78         30.5234
   471.92         30.6303
   472.06         30.6823
   472.20         30.6804
   472.34         30.6300
   472.48         30.5408
   472.62         30.4284
   472.76         30.3134
   472.90         30.2191
   473.04         30.1663
   473.18         30.1680
   473.32         30.2283
   473.46         30.3437
   473.60         30.5037
   473.74         30.6918
   473.88         30.8865
   474.02         31.0638
   474.16         31.2027
   474.30         31.2900
   474.44         31.3218
   474.58         31.3013
   474.72         31.2342
   474.86         31.1274
   475.00         30.9879
   475.14         30.8245
   475.28         30.6459
   475.42         30.4620
   475.56         30.2847
   475.70         30.1270
   475.84         29.9988
   475.98         29.9076
   476.12         29.8603
   476.26         29.8617
   476.40         29.9138
   476.54         30.0145
   476.68         30.1573
   476.82         30.3322
   476.96         30.5275
   477.10         30.7299
   477.24         30.9233
   477.38         31.0890
   477.52         31.2103
   477.66         31.2769
   477.80         31.2883
   477.94         31.2545
   478.08         31.1960
   478.22         31.1384
   478.36         31.1042
   478.50         31.1067
   478.64         31.1514
   478.78         31.2367
   478.92         31.3551
   479.06         31.4941
   479.20         31.6357
   479.34         31.7583
   479.48         31.8432
   479.62         31.8777
   479.76         31.8573
   479.90         31.7858
   480.04         31.6740
   480.18         31.5392
   480.32         31.4021
   480.46         31.2833
   480.60         31.1997
   480.74         31.1631
   480.88         31.1743
   481.02         31.2207
   481.16         31.2844
   481.30         31.3509
   481.44         31.4099
   481.58         31.4531
   481.72         31.4725
   481.86         31.4608
   482.00         31.4156
   482.14         31.3413
   482.28         31.2455
   482.42         31.1367
   482.56         31.0222
   482.70         30.9069
   482.84         30.7935
   482.98         30.6822
   483.12         30.5715
   483.26         30.4605
   483.40         30.3489
   483.54         30.2349
   483.68         30.1182
   483.82         30.0013
   483.96         29.8855
   484.10         29.7661
   484.24         29.6338
   484.38         29.4767
   484.52         29.2808
   484.66         29.0288
   484.80         28.7008
   484.94         28.2797
   485.08         27.7624
   485.22         27.1639
   485.36         26.5165
   485.50         25.8658
   485.64         25.2621
   485.78         24.7507
   485.92         24.3657
   486.06         24.1293
   486.20         24.0523
   486.34         24.1344
   486.48         24.3625
   486.62         24.7117
   486.76         25.1494
   486.90         25.6390
   487.04         26.1421
   487.18         26.6217
   487.32         27.0469
   487.46         27.3988
   487.60         27.6740
   487.74         27.8796
   487.88         28.0262
   488.02         28.1263
   488.16         28.1960
   488.30         28.2528
   488.44         28.3138
   488.58         28.3965
   488.72         28.5172
   488.86         28.6859
   489.00         28.9025
   489.14         29.1562
   489.28         29.4290
   489.42         29.6983
   489.56         29.9390
   489.70         30.1268
   489.84         30.2419
   489.98         30.2728
   490.12         30.2194
   490.26         30.0930
   490.40         29.9119
   490.54         29.6961
   490.68         29.4632
   490.82         29.2259
   490.96         28.9914
   491.10         28.7649
   491.24         28.5534
   491.38         28.3668
   491.52         28.2176
   491.66         28.1204
   491.80         28.0894
   491.94         28.1325
   492.08         28.2454
   492.22         28.4129
   492.36         28.6126
   492.50         28.8192
   492.64         29.0087
   492.78         29.1640
   492.92         29.2741
   493.06         29.3330
   493.20         29.3406
   493.34         29.3057
   493.48         29.2477
   493.62         29.1938
   493.76         29.1724
   493.90         29.2049
   494.04         29.3013
   494.18         29.4586
   494.32         29.6595
   494.46         29.8735
   494.60         30.0666
   494.74         30.2132
   494.88         30.3024
   495.02         30.3358
   495.16         30.3237
   495.30         30.2797
   495.44         30.2168
   495.58         30.1444
   495.72         30.0684
   495.86         29.9942
   496.00         29.9289
   496.14         29.8815
   496.28         29.8579
   496.42         29.8571
   496.56         29.8697
   496.70         29.8810
   496.84         29.8755
   496.98         29.8364
   497.12         29.7515
   497.26         29.6204
   497.40         29.4524
   497.54         29.2602
   497.68         29.0558
   497.82         28.8488
   497.96         28.6497
   498.10         28.4743
   498.24         28.3431
   498.38         28.2755
   498.52         28.2803
   498.66         28.3528
   498.80         28.4782
   498.94         28.6344
   499.08         28.7943
   499.22         28.9297
   499.36         29.0151
   499.50         29.0346
   499.64         28.9862
   499.78         28.8797
   499.92         28.7310
   500.06         28.5538
   500.20         28.3546
   500.34         28.1358
   500.48         27.9031
   500.62         27.6673
   500.76         27.4429
   500.90         27.2416
   501.04         27.0697
   501.18         26.9299
   501.32         26.8255
   501.46         26.7601
   501.60         26.7364
   501.74         26.7565
   501.88         26.8243
   502.02         26.9433
   502.16         27.1126
   502.30         27.3206
   502.44         27.5439
   502.58         27.7528
   502.72         27.9179
   502.86         28.0182
   503.00         28.0495
   503.14         28.0254
   503.28         27.9694
   503.42         27.9033
   503.56         27.8417
   503.70         27.7942
   503.84         27.7694
   503.98         27.7766
   504.12         27.8273
   504.26         27.9313
   504.40         28.0924
   504.54         28.3055
   504.68         28.5563
   504.82         28.8255
   504.96         29.0927
   505.10         29.3375
   505.24         29.5413
   505.38         29.6934
   505.52         29.7945
   505.66         29.8526
   505.80         29.8720
   505.94         29.8462
   506.08         29.7648
   506.22         29.6248
   506.36         29.4340
   506.50         29.2059
   506.64         28.9541
   506.78         28.6883
   506.92         28.4168
   507.06         28.1501
   507.20         27.9029
   507.34         27.6906
   507.48         27.5270
   507.62         27.4198
   507.76         27.3727
   507.90         27.3904
   508.04         27.4794
   508.18         27.6395
   508.32         27.8552
   508.46         28.0957
   508.60         28.3255
   508.74         28.5184
   508.88         28.6595
   509.02         28.7421
   509.16         28.7671
   509.30         28.7413
   509.44         28.6769
   509.58         28.5906
   509.72         28.5010
   509.86         28.4251
   510.00         28.3769
   510.14         28.3659
   510.28         28.3975
   510.42         28.4739
   510.56         28.5922
   510.70         28.7403
   510.84         28.8971
   510.98         29.0389
   511.12         29.1466
   511.26         29.2101
   511.40         29.2256
   511.54         29.1907
   511.68         29.1038
   511.82         28.9655
   511.96         28.7804
   512.10         28.5604
   512.24         28.3253
   512.38         28.0965
   512.52         27.8928
   512.66         27.7283
   512.80         27.6103
   512.94         27.5392
   513.08         27.5090
   513.22         27.5076
   513.36         27.5196
   513.50         27.5324
   513.64         27.5385
   513.78         27.5330
   513.92         27.5149
   514.06         27.4882
   514.20         27.4603
   514.34         27.4403
   514.48         27.4372
   514.62         27.4580
   514.76         27.5052
   514.90         27.5748
   515.04         27.6541
   515.18         27.7232
   515.32         27.7571
   515.46         27.7306
   515.60         27.6239
   515.74         27.4263
   515.88         27.1356
   516.02         26.7625
   516.16         26.3363
   516.30         25.9000
   516.44         25.5008
   516.58         25.1818
   516.72         24.9747
   516.86         24.8912
   517.00         24.9211
   517.14         25.0404
   517.28         25.2218
   517.42         25.4404
   517.56         25.6723
   517.70         25.8946
   517.84         26.0879
   517.98         26.2396
   518.12         26.3477
   518.26         26.4195
   518.40         26.4677
   518.54         26.5100
   518.68         26.5688
   518.82         26.6650
   518.96         26.8061
   519.10         26.9830
   519.24         27.1751
   519.38         27.3593
   519.52         27.5177
   519.66         27.6450
   519.80         27.7494
   519.94         27.8450
   520.08         27.9395
   520.22         28.0285
   520.36         28.1006
   520.50         28.1478
   520.64         28.1713
   520.78         28.1806
   520.92         28.1860
   521.06         28.1939
   521.20         28.2043
   521.34         28.2087
   521.48         28.1931
   521.62         28.1469
   521.76         28.0666
   521.90         27.9564
   522.04         27.8258
   522.18         27.6881
   522.32         27.5577
   522.46         27.4494
   522.60         27.3771
   522.74         27.3512
   522.88         27.3789
   523.02         27.4642
   523.16         27.6096
   523.30         27.8117
   523.44         28.0546
   523.58         28.3119
   523.72         28.5536
   523.86         28.7532
   524.00         28.8932
   524.14         28.9693
   524.28         28.9870
   524.42         28.9553
   524.56         28.8854
   524.70         28.7909
   524.84         28.6849
   524.98         28.5748
   525.12         28.4593
   525.26         28.3296
   525.40         28.1744
   525.54         27.9843
   525.68         27.7535
   525.82         27.4837
   525.96         27.1820
   526.10         26.8612
   526.24         26.5413
   526.38         26.2487
   526.52         26.0133
   526.66         25.8608
   526.80         25.8070
   526.94         25.8540
   527.08         25.9915
   527.22         26.2014
   527.36         26.4625
   527.50         26.7534
   527.64         27.0553
   527.78         27.3560
   527.92         27.6499
   528.06         27.9346
   528.20         28.2051
   528.34         28.4521
   528.48         28.6636
   528.62         28.8280
   528.76         28.9381
   528.90         28.9920
   529.04         28.9948
   529.18         28.9559
   529.32         28.8862
   529.46         28.7995
   529.60         28.7141
   529.74         28.6521
   529.88         28.6358
   530.02         28.6800
   530.16         28.7849
   530.30         28.9369
   530.44         29.1138
   530.58         29.2901
   530.72         29.4414
   530.86         29.5478
   531.00         29.5952
   531.14         29.5761
   531.28         29.4904
   531.42         29.3428
   531.56         29.1392
   531.70         28.8892
   531.84         28.6070
   531.98         28.3116
   532.12         28.0250
   532.26         27.7688
   532.40         27.5598
   532.54         27.4065
   532.68         27.3096
   532.82         27.2640
   532.96         27.2624
   533.10         27.2987
   533.24         27.3675
   533.38         27.4590
   533.52         27.5593
   533.66         27.6531
   533.80         27.7301
   533.94         27.7879
   534.08         27.8309
   534.22         27.8693
   534.36         27.9184
   534.50         27.9923
   534.64         28.0985
   534.78         28.2364
   534.92         28.3973
   535.06         28.5656
   535.20         28.7237
   535.34         28.8561
   535.48         28.9513
   535.62         29.0008
   535.76         28.9992
   535.90         28.9453
   536.04         28.8443
   536.18         28.7101
   536.32         28.5620
   536.46         28.4220
   536.60         28.3097
   536.74         28.2363
   536.88         28.2054
   537.02         28.2149
   537.16         28.2589
   537.30         28.3283
   537.44         28.4100
   537.58         28.4887
   537.72         28.5506
   537.86         28.5854
   538.00         28.5867
   538.14         28.5510
   538.28         28.4760
   538.42         28.3638
   538.56         28.2214
   538.70         28.0590
   538.84         27.8867
   538.98         27.7111
   539.12         27.5347
   539.26         27.3573
   539.40         27.1796
   539.54         27.0078
   539.68         26.8507
   539.82         26.7169
   539.96         26.6130
   540.10         26.5421
   540.24         26.5067
   540.38         26.5100
   540.52         26.5546
   540.66         26.6413
   540.80         26.7649
   540.94         26.9147
   541.08         27.0785
   541.22         27.2443
   541.36         27.4026
   541.50         27.5452
   541.64         27.6639
   541.78         27.7546
   541.92         27.8189
   542.06         27.8614
   542.20         27.8861
   542.34         27.8963
   542.48         27.8983
   542.62         27.9024
   542.76         27.9196
   542.90         27.9587
   543.04         28.0236
   543.18         28.1107
   543.32         28.2076
   543.46         28.2981
   543.60         28.3729
   543.74         28.4315
   543.88         28.4775
   544.02         28.5151
   544.16         28.5438
   544.30         28.5588
   544.44         28.5569
   544.58         28.5386
   544.72         28.5079
   544.86         28.4701
   545.00         28.4305
   545.14         28.3925
   545.28         28.3554
   545.42         28.3141
   545.56         28.2629
   545.70         28.1979
   545.84         28.1188
   545.98         28.0286
   546.12         27.9347
   546.26         27.8445
   546.40         27.7578
   546.54         27.6685
   546.68         27.5720
   546.82         27.4670
   546.96         27.3570
   547.10         27.2498
   547.24         27.1542
   547.38         27.0765
   547.52         27.0191
   547.66         26.9823
   547.80         26.9672
   547.94         26.9755
   548.08         27.0074
   548.22         27.0612
   548.36         27.1340
   548.50         27.2200
   548.64         27.3125
   548.78         27.4047
   548.92         27.4894
   549.06         27.5605
   549.20         27.6166
   549.34         27.6592
   549.48         27.6885
   549.62         27.7049
   549.76         27.7076
   549.90         27.6936
   550.04         27.6584
   550.18         27.5995
   550.32         27.5202
   550.46         27.4295
   550.60         27.3391
   550.74         27.2600
   550.88         27.2020
   551.02         27.1717
   551.16         27.1697
   551.30         27.1912
   551.44         27.2271
   551.58         27.2660
   551.72         27.2989
   551.86         27.3215
   552.00         27.3320
   552.14         27.3281
   552.28         27.3080
   552.42         27.2720
   552.56         27.2250
   552.70         27.1771
   552.84         27.1411
   552.98         27.1268
   553.12         27.1377
   553.26         27.1714
   553.40         27.2219
   553.54         27.2826
   553.68         27.3494
   553.82         27.4193
   553.96         27.4880
   554.10         27.5506
   554.24         27.6035
   554.38         27.6465
   554.52         27.6807
   554.66         27.7066
   554.80         27.7235
   554.94         27.7317
   555.08         27.7311
   555.22         27.7198
   555.36         27.6943
   555.50         27.6506
   555.64         27.5861
   555.78         27.5010
   555.92         27.3988
   556.06         27.2874
   556.20         27.1769
   556.34         27.0800
   556.48         27.0073
   556.62         26.9641
   556.76         26.9535
   556.90         26.9756
   557.04         27.0284
   557.18         27.1054
   557.32         27.1947
   557.46         27.2798
   557.60         27.3421
   557.74         27.3671
   557.88         27.3476
   558.02         27.2839
   558.16         27.1822
   558.30         27.0527
   558.44         26.9074
   558.58         26.7573
   558.72         26.6109
   558.86         26.4739
   559.00         26.3510
   559.14         26.2468
   559.28         26.1675
   559.42         26.1220
   559.56         26.1188
   559.70         26.1637
   559.84         26.2568
   559.98         26.3933
   560.12         26.5646
   560.26         26.7574
   560.40         26.9556
   560.54         27.1435
   560.68         27.3063
   560.82         27.4319
   560.96         27.5106
   561.10         27.5342
   561.24         27.4989
   561.38         27.4102
   561.52         27.2838
   561.66         27.1416
   561.80         27.0055
   561.94         26.8918
   562.08         26.8073
   562.22         26.7497
   562.36         26.7120
   562.50         26.6858
   562.64         26.6642
   562.78         26.6405
   562.92         26.6095
   563.06         26.5714
   563.20         26.5313
   563.34         26.4954
   563.48         26.4687
   563.62         26.4537
   563.76         26.4515
   563.90         26.4638
   564.04         26.4915
   564.18         26.5318
   564.32         26.5784
   564.46         26.6236
   564.60         26.6583
   564.74         26.6750
   564.88         26.6704
   565.02         26.6458
   565.16         26.6068
   565.30         26.5590
   565.44         26.5072
   565.58         26.4574
   565.72         26.4180
   565.86         26.3969
   566.00         26.3997
   566.14         26.4291
   566.28         26.4847
   566.42         26.5652
   566.56         26.6675
   566.70         26.7854
   566.84         26.9090
   566.98         27.0248
   567.12         27.1184
   567.26         27.1785
   567.40         27.1981
   567.54         27.1743
   567.68         27.1092
   567.82         27.0107
   567.96         26.8908
   568.10         26.7667
   568.24         26.6568
   568.38         26.5761
   568.52         26.5333
   568.66         26.5296
   568.80         26.5600
   568.94         26.6165
   569.08         26.6886
   569.22         26.7613
   569.36         26.8169
   569.50         26.8389
   569.64         26.8154
   569.78         26.7414
   569.92         26.6195
   570.06         26.4603
   570.20         26.2819
   570.34         26.1082
   570.48         25.9638
   570.62         25.8691
   570.76         25.8372
   570.90         25.8730
   571.04         25.9747
   571.18         26.1359
   571.32         26.3451
   571.46         26.5881
   571.60         26.8485
   571.74         27.1078
   571.88         27.3463
   572.02         27.5462
   572.16         27.6963
   572.30         27.7942
   572.44         27.8459
   572.58         27.8619
   572.72         27.8553
   572.86         27.8378
   573.00         27.8167
   573.14         27.7959
   573.28         27.7756
   573.42         27.7533
   573.56         27.7250
   573.70         27.6879
   573.84         27.6389
   573.98         27.5730
   574.12         27.4846
   574.26         27.3715
   574.40         27.2358
   574.54         27.0840
   574.68         26.9247
   574.82         26.7681
   574.96         26.6234
   575.10         26.4971
   575.24         26.3976
   575.38         26.3358
   575.52         26.3201
   575.66         26.3546
   575.80         26.4370
   575.94         26.5587
   576.08         26.7060
   576.22         26.8635
   576.36         27.0183
   576.50         27.1589
   576.64         27.2748
   576.78         27.3580
   576.92         27.4032
   577.06         27.4075
   577.20         27.3690
   577.34         27.2884
   577.48         27.1728
   577.62         27.0346
   577.76         26.8898
   577.90         26.7542
   578.04         26.6374
   578.18         26.5435
   578.32         26.4747
   578.46         26.4302
   578.60         26.4078
   578.74         26.4057
   578.88         26.4240
   579.02         26.4620
   579.16         26.5149
   579.30         26.5744
   579.44         26.6313
   579.58         26.6790
   579.72         26.7155
   579.86         26.7423
   580.00         26.7637
   580.14         26.7830
   580.28         26.7995
   580.42         26.8116
   580.56         26.8199
   580.70         26.8287
   580.84         26.8441
   580.98         26.8699
   581.12         26.9076
   581.26         26.9578
   581.40         27.0192
   581.54         27.0863
   581.68         27.1510
   581.82         27.2064
   581.96         27.2489
   582.10         27.2771
   582.24         27.2917
   582.38         27.2945
   582.52         27.2868
   582.66         27.2725
   582.80         27.2574
   582.94         27.2499
   583.08         27.2597
   583.22         27.2937
   583.36         27.3530
   583.50         27.4333
   583.64         27.5282
   583.78         27.6291
   583.92         27.7244
   584.06         27.8007
   584.20         27.8470
   584.34         27.8550
   584.48         27.8164
   584.62         27.7270
   584.76         27.5900
   584.90         27.4168
   585.04         27.2243
   585.18         27.0326
   585.32         26.8607
   585.46         26.7237
   585.60         26.6307
   585.74         26.5873
   585.88         26.5946
   586.02         26.6489
   586.16         26.7430
   586.30         26.8648
   586.44         26.9975
   586.58         27.1234
   586.72         27.2296
   586.86         27.3095
   587.00         27.3623
   587.14         27.3913
   587.28         27.4014
   587.42         27.3944
   587.56         27.3623
   587.70         27.2894
   587.84         27.1611
   587.98         26.9706
   588.12         26.7157
   588.26         26.3972
   588.40         26.0232
   588.54         25.6118
   588.68         25.1902
   588.82         24.7914
   588.96         24.4505
   589.10         24.1992
   589.24         24.0614
   589.38         24.0511
   589.52         24.1685
   589.66         24.3987
   589.80         24.7131
   589.94         25.0747
   590.08         25.4450
   590.22         25.7909
   590.36         26.0914
   590.50         26.3381
   590.64         26.5282
   590.78         26.6599
   590.92         26.7386
   591.06         26.7788
   591.20         26.7988
   591.34         26.8128
   591.48         26.8267
   591.62         26.8394
   591.76         26.8458
   591.90         26.8409
   592.04         26.8207
   592.18         26.7817
   592.32         26.7226
   592.46         26.6457
   592.60         26.5565
   592.74         26.4633
   592.88         26.3749
   593.02         26.2979
   593.16         26.2352
   593.30         26.1855
   593.44         26.1428
   593.58         26.0991
   593.72         26.0480
   593.86         25.9844
   594.00         25.9021
   594.14         25.7972
   594.28         25.6730
   594.42         25.5394
   594.56         25.4084
   594.70         25.2922
   594.84         25.2037
   594.98         25.1549
   595.12         25.1527
   595.26         25.1992
   595.40         25.2914
   595.54         25.4218
   595.68         25.5798
   595.82         25.7524
   595.96         25.9240
   596.10         26.0774
   596.24         26.1988
   596.38         26.2793
   596.52         26.3142
   596.66         26.3026
   596.80         26.2492
   596.94         26.1618
   597.08         26.0482
   597.22         25.9174
   597.36         25.7797
   597.50         25.6456
   597.64         25.5235
   597.78         25.4203
   597.92         25.3417
   598.06         25.2921
   598.20         25.2727
   598.34         25.2801
   598.48         25.3061
   598.62         25.3399
   598.76         25.3725
   598.90         25.3984
   599.04         25.4142
   599.18         25.4176
   599.32         25.4076
   599.46         25.3838
   599.60         25.3476
   599.74         25.3020
   599.88         25.2494
   600.02         25.1927
   600.16         25.1345
   600.30         25.0761
   600.44         25.0178
   600.58         24.9599
   600.72         24.9023
   600.86         24.8442
   601.00         24.7853
   601.14         24.7264
   601.28         24.6693
   601.42         24.6160
   601.56         24.5683
   601.70         24.5285
   601.84         24.4994
   601.98         24.4837
   602.12         24.4851
   602.26         24.5071
   602.40         24.5515
   602.54         24.6170
   602.68         24.6999
   602.82         24.7927
   602.96         24.8856
   603.10         24.9696
   603.24         25.0378
   603.38         25.0864
   603.52         25.1148
   603.66         25.1237
   603.80         25.1147
   603.94         25.0925
   604.08         25.0631
   604.22         25.0321
   604.36         25.0030
   604.50         24.9789
   604.64         24.9625
   604.78         24.9553
   604.92         24.9560
   605.06         24.9611
   605.20         24.9658
   605.34         24.9655
   605.48         24.9608
   605.62         24.9578
   605.76         24.9641
   605.90         24.9851
   606.04         25.0226
   606.18         25.0739
   606.32         25.1322
   606.46         25.1892
   606.60         25.2363
   606.74         25.2652
   606.88         25.2702
   607.02         25.2493
   607.16         25.2028
   607.30         25.1322
   607.44         25.0403
   607.58         24.9321
   607.72         24.8139
   607.86         24.6933
   608.00         24.5790
   608.14         24.4789
   608.28         24.3963
   608.42         24.3302
   608.56         24.2815
   608.70         24.2519
   608.84         24.2387
   608.98         24.2350
   609.12         24.2332
   609.26         24.2274
   609.40         24.2149
   609.54         24.1953
   609.68         24.1702
   609.82         24.1429
   609.96         24.1181
   610.10         24.1019
   610.24         24.0977
   610.38         24.1062
   610.52         24.1270
   610.66         24.1593
   610.80         24.1991
   610.94         24.2411
   611.08         24.2818
   611.22         24.3180
   611.36         24.3435
   611.50         24.3516
   611.64         24.3392
   611.78         24.3085
   611.92         24.2659
   612.06         24.2193
   612.20         24.1744
   612.34         24.1312
   612.48         24.0855
   612.62         24.0339
   612.76         23.9758
   612.90         23.9125
   613.04         23.8478
   613.18         23.7885
   613.32         23.7398
   613.46         23.7051
   613.60         23.6874
   613.74         23.6897
   613.88         23.7134
   614.02         23.7567
   614.16         23.8143
   614.30         23.8793
   614.44         23.9449
   614.58         24.0040
   614.72         24.0468
   614.86         24.0622
   615.00         24.0420
   615.14         23.9868
   615.28         23.9059
   615.42         23.8128
   615.56         23.7197
   615.70         23.6355
   615.84         23.5668
   615.98         23.5186
   616.12         23.4950
   616.26         23.4974
   616.40         23.5243
   616.54         23.5717
   616.68         23.6338
   616.82         23.7052
   616.96         23.7825
   617.10         23.8637
   617.24         23.9457
   617.38         24.0241
   617.52         24.0956
   617.66         24.1590
   617.80         24.2130
   617.94         24.2553
   618.08         24.2834
   618.22         24.2949
   618.36         24.2889
   618.50         24.2677
   618.64         24.2358
   618.78         24.1974
   618.92         24.1582
   619.06         24.1277
   619.20         24.1160
   619.34         24.1302
   619.48         24.1733
   619.62         24.2437
   619.76         24.3341
   619.90         24.4328
   620.04         24.5257
   620.18         24.5997
   620.32         24.6444
   620.46         24.6537
   620.60         24.6276
   620.74         24.5692
   620.88         24.4820
   621.02         24.3715
   621.16         24.2444
   621.30         24.1095
   621.44         23.9772
   621.58         23.8577
   621.72         23.7559
   621.86         23.6701
   622.00         23.5960
   622.14         23.5304
   622.28         23.4715
   622.42         23.4177
   622.56         23.3668
   622.70         23.3162
   622.84         23.2671
   622.98         23.2240
   623.12         23.1917
   623.26         23.1724
   623.40         23.1645
   623.54         23.1667
   623.68         23.1791
   623.82         23.2004
   623.96         23.2273
   624.10         23.2544
   624.24         23.2752
   624.38         23.2853
   624.52         23.2844
   624.66         23.2770
   624.80         23.2702
   624.94         23.2700
   625.08         23.2804
   625.22         23.3032
   625.36         23.3404
   625.50         23.3952
   625.64         23.4691
   625.78         23.5591
   625.92         23.6581
   626.06         23.7589
   626.20         23.8548
   626.34         23.9370
   626.48         23.9953
   626.62         24.0194
   626.76         24.0022
   626.90         23.9414
   627.04         23.8406
   627.18         23.7081
   627.32         23.5563
   627.46         23.3999
   627.60         23.2517
   627.74         23.1224
   627.88         23.0210
   628.02         22.9546
   628.16         22.9274
   628.30         22.9388
   628.44         22.9837
   628.58         23.0530
   628.72         23.1357
   628.86         23.2185
   629.00         23.2888
   629.14         23.3395
   629.28         23.3691
   629.42         23.3809
   629.56         23.3817
   629.70         23.3786
   629.84         23.3767
   629.98         23.3787
   630.12         23.3837
   630.26         23.3866
   630.40         23.3815
   630.54         23.3646
   630.68         23.3349
   630.82         23.2945
   630.96         23.2470
   631.10         23.1964
   631.24         23.1478
   631.38         23.1091
   631.52         23.0883
   631.66         23.0897
   631.80         23.1137
   631.94         23.1565
   632.08         23.2110
   632.22         23.2665
   632.36         23.3119
   632.50         23.3392
   632.64         23.3437
   632.78         23.3231
   632.92         23.2795
   633.06         23.2182
   633.20         23.1450
   633.34         23.0663
   633.48         22.9880
   633.62         22.9148
   633.76         22.8513
   633.90         22.8028
   634.04         22.7739
   634.18         22.7658
   634.32         22.7779
   634.46         22.8090
   634.60         22.8546
   634.74         22.9068
   634.88         22.9576
   635.02         23.0009
   635.16         23.0329
   635.30         23.0523
   635.44         23.0615
   635.58         23.0631
   635.72         23.0595
   635.86         23.0544
   636.00         23.0542
   636.14         23.0648
   636.28         23.0901
   636.42         23.1311
   636.56         23.1858
   636.70         23.2478
   636.84         23.3082
   636.98         23.3594
   637.12         23.3955
   637.26         23.4121
   637.40         23.4094
   637.54         23.3930
   637.68         23.3695
   637.82         23.3447
   637.96         23.3241
   638.10         23.3095
   638.24         23.3001
   638.38         23.2962
   638.52         23.2990
   638.66         23.3062
   638.80         23.3136
   638.94         23.3184
   639.08         23.3206
   639.22         23.3211
   639.36         23.3180
   639.50         23.3079
   639.64         23.2875
   639.78         23.2546
   639.92         23.2085
   640.06         23.1508
   640.20         23.0833
   640.34         23.0082
   640.48         22.9294
   640.62         22.8521
   640.76         22.7807
   640.90         22.7187
   641.04         22.6688
   641.18         22.6325
   641.32         22.6118
   641.46         22.6117
   641.60         22.6375
   641.74         22.6884
   641.88         22.7562
   642.02         22.8294
   642.16         22.8984
   642.30         22.9580
   642.44         23.0040
   642.58         23.0325
   642.72         23.0404
   642.86         23.0296
   643.00         23.0068
   643.14         22.9793
   643.28         22.9524
   643.42         22.9306
   643.56         22.9176
   643.70         22.9138
   643.84         22.9162
   643.98         22.9210
   644.12         22.9244
   644.26         22.9207
   644.40         22.9030
   644.54         22.8683
   644.68         22.8194
   644.82         22.7621
   644.96         22.7032
   645.10         22.6490
   645.24         22.6067
   645.38         22.5849
   645.52         22.5920
   645.66         22.6297
   645.80         22.6913
   645.94         22.7670
   646.08         22.8470
   646.22         22.9220
   646.36         22.9841
   646.50         23.0300
   646.64         23.0611
   646.78         23.0788
   646.92         23.0828
   647.06         23.0741
   647.20         23.0578
   647.34         23.0403
   647.48         23.0264
   647.62         23.0182
   647.76         23.0169
   647.90         23.0223
   648.04         23.0308
   648.18         23.0336
   648.32         23.0197
   648.46         22.9819
   648.60         22.9192
   648.74         22.8353
   648.88         22.7377
   649.02         22.6378
   649.16         22.5491
   649.30         22.4843
   649.44         22.4528
   649.58         22.4605
   649.72         22.5111
   649.86         22.6054
   650.00         22.7382
   650.14         22.8984
   650.28         23.0709
   650.42         23.2392
   650.56         23.3866
   650.70         23.5000
   650.84         23.5719
   650.98         23.6029
   651.12         23.6002
   651.26         23.5735
   651.40         23.5334
   651.54         23.4909
   651.68         23.4556
   651.82         23.4334
   651.96         23.4265
   652.10         23.4348
   652.24         23.4580
   652.38         23.4955
   652.52         23.5448
   652.66         23.6009
   652.80         23.6559
   652.94         23.7025
   653.08         23.7352
   653.22         23.7504
   653.36         23.7468
   653.50         23.7257
   653.64         23.6895
   653.78         23.6395
   653.92         23.5765
   654.06         23.5012
   654.20         23.4128
   654.34         23.3091
   654.48         23.1872
   654.62         23.0424
   654.76         22.8668
   654.90         22.6471
   655.04         22.3668
   655.18         22.0170
   655.32         21.6040
   655.46         21.1490
   655.60         20.6836
   655.74         20.2432
   655.88         19.8624
   656.02         19.5717
   656.16         19.3940
   656.30         19.3434
   656.44         19.4235
   656.58         19.6272
   656.72         19.9348
   656.86         20.3177
   657.00         20.7430
   657.14         21.1743
   657.28         21.5762
   657.42         21.9200
   657.56         22.1890
   657.70         22.3827
   657.84         22.5141
   657.98         22.5986
   658.12         22.6461
   658.26         22.6622
   658.40         22.6522
   658.54         22.6227
   658.68         22.5810
   658.82         22.5359
   658.96         22.4961
   659.10         22.4672
   659.24         22.4502
   659.38         22.4440
   659.52         22.4463
   659.66         22.4545
   659.80         22.4651
   659.94         22.4755
   660.08         22.4841
   660.22         22.4900
   660.36         22.4931
   660.50         22.4931
   660.64         22.4911
   660.78         22.4906
   660.92         22.4947
   661.06         22.5055
   661.20         22.5217
   661.34         22.5402
   661.48         22.5590
   661.62         22.5763
   661.76         22.5891
   661.90         22.5919
   662.04         22.5777
   662.18         22.5426
   662.32         22.4866
   662.46         22.4135
   662.60         22.3306
   662.74         22.2479
   662.88         22.1742
   663.02         22.1160
   663.16         22.0771
   663.30         22.0602
   663.44         22.0664
   663.58         22.0936
   663.72         22.1388
   663.86         22.1984
   664.00         22.2688
   664.14         22.3456
   664.28         22.4222
   664.42         22.4912
   664.56         22.5467
   664.70         22.5856
   664.84         22.6085
   664.98         22.6161
   665.12         22.6075
   665.26         22.5819
   665.40         22.5388
   665.54         22.4785
   665.68         22.4039
   665.82         22.3206
   665.96         22.2358
   666.10         22.1544
   666.24         22.0782
   666.38         22.0076
   666.52         21.9426
   666.66         21.8829
   666.80         21.8292
   666.94         21.7827
   667.08         21.7460
   667.22         21.7208
   667.36         21.7083
   667.50         21.7092
   667.64         21.7226
   667.78         21.7477
   667.92         21.7846
   668.06         21.8317
   668.20         21.8845
   668.34         21.9370
   668.48         21.9819
   668.62         22.0129
   668.76         22.0264
   668.90         22.0214
   669.04         22.0001
   669.18         21.9666
   669.32         21.9257
   669.46         21.8824
   669.60         21.8414
   669.74         21.8070
   669.88         21.7819
   670.02         21.7657
   670.16         21.7556
   670.30         21.7482
   670.44         21.7409
   670.58         21.7310
   670.72         21.7157
   670.86         21.6934
   671.00         21.6655
   671.14         21.6367
   671.28         21.6120
   671.42         21.5955
   671.56         21.5893
   671.70         21.5951
   671.84         21.6129
   671.98         21.6413
   672.12         21.6782
   672.26         21.7214
   672.40         21.7686
   672.54         21.8147
   672.68         21.8533
   672.82         21.8805
   672.96         21.8950
   673.10         21.8955
   673.24         21.8810
   673.38         21.8515
   673.52         21.8088
   673.66         21.7557
   673.80         21.6947
   673.94         21.6281
   674.08         21.5593
   674.22         21.4920
   674.36         21.4291
   674.50         21.3733
   674.64         21.3280
   674.78         21.2966
   674.92         21.2811
   675.06         21.2807
   675.20         21.2909
   675.34         21.3059
   675.48         21.3203
   675.62         21.3288
   675.76         21.3283
   675.90         21.3195
   676.04         21.3058
   676.18         21.2919
   676.32         21.2816
   676.46         21.2774
   676.60         21.2794
   676.74         21.2852
   676.88         21.2923
   677.02         21.2981
   677.16         21.3003
   677.30         21.2966
   677.44         21.2856
   677.58         21.2681
   677.72         21.2457
   677.86         21.2205
   678.00         21.1959
   678.14         21.1757
   678.28         21.1634
   678.42         21.1620
   678.56         21.1722
   678.70         21.1935
   678.84         21.2247
   678.98         21.2632
   679.12         21.3042
   679.26         21.3425
   679.40         21.3747
   679.54         21.3990
   679.68         21.4141
   679.82         21.4203
   679.96         21.4195
   680.10         21.4146
   680.24         21.4087
   680.38         21.4035
   680.52         21.3999
   680.66         21.3994
   680.80         21.4031
   680.94         21.4123
   681.08         21.4273
   681.22         21.4454
   681.36         21.4621
   681.50         21.4718
   681.64         21.4690
   681.78         21.4510
   681.92         21.4186
   682.06         21.3757
   682.20         21.3271
   682.34         21.2772
   682.48         21.2284
   682.62         21.1811
   682.76         21.1326
   682.90         21.0787
   683.04         21.0154
   683.18         20.9412
   683.32         20.8587
   683.46         20.7730
   683.60         20.6890
   683.74         20.6108
   683.88         20.5428
   684.02         20.4910
   684.16         20.4593
   684.30         20.4491
   684.44         20.4581
   684.58         20.4817
   684.72         20.5144
   684.86         20.5495
   685.00         20.5794
   685.14         20.5984
   685.28         20.6025
   685.42         20.5868
   685.56         20.5425
   685.70         20.4570
   685.84         20.3157
   685.98         20.1073
   686.12         19.8260
   686.26         19.4732
   686.40         19.0597
   686.54         18.6058
   686.68         18.1378
   686.82         17.6865
   686.96         17.2850
   687.10         16.9645
   687.24         16.7481
   687.38         16.6468
   687.52         16.6582
   687.66         16.7695
   687.80         16.9575
   687.94         17.1917
   688.08         17.4395
   688.22         17.6714
   688.36         17.8671
   688.50         18.0186
   688.64         18.1281
   688.78         18.2040
   688.92         18.2566
   689.06         18.2963
   689.20         18.3323
   689.34         18.3725
   689.48         18.4231
   689.62         18.4869
   689.76         18.5629
   689.90         18.6478
   690.04         18.7383
   690.18         18.8311
   690.32         18.9239
   690.46         19.0158
   690.60         19.1063
   690.74         19.1944
   690.88         19.2794
   691.02         19.3609
   691.16         19.4385
   691.30         19.5126
   691.44         19.5833
   691.58         19.6499
   691.72         19.7117
   691.86         19.7685
   692.00         19.8206
   692.14         19.8691
   692.28         19.9128
   692.42         19.9491
   692.56         19.9761
   692.70         19.9929
   692.84         19.9998
   692.98         19.9991
   693.12         19.9938
   693.26         19.9863
   693.40         19.9779
   693.54         19.9694
   693.68         19.9600
   693.82         19.9488
   693.96         19.9368
   694.10         19.9266
   694.24         19.9207
   694.38         19.9203
   694.52         19.9254
   694.66         19.9353
   694.80         19.9494
   694.94         19.9667
   695.08         19.9871
   695.22         20.0107
   695.36         20.0371
   695.50         20.0656
   695.64         20.0958
   695.78         20.1279
   695.92         20.1612
   696.06         20.1944
   696.20         20.2257
   696.34         20.2526
   696.48         20.2721
   696.62         20.2799
   696.76         20.2714
   696.90         20.2439
   697.04         20.1987
   697.18         20.1409
   697.32         20.0768
   697.46         20.0123
   697.60         19.9515
   697.74         19.8980
   697.88         19.8555
   698.02         19.8265
   698.16         19.8102
   698.30         19.8036
   698.44         19.8033
   698.58         19.8055
   698.72         19.8049
   698.86         19.7971
   699.00         19.7776
   699.14         19.7431
   699.28         19.6935
   699.42         19.6331
   699.56         19.5701
   699.70         19.5118
   699.84         19.4614
   699.98         19.4196
   700.12         19.3873
   700.26         19.3638
   700.40         19.3470
   700.54         19.3356
   700.68         19.3294
   700.82         19.3295
   700.96         19.3374
   701.10         19.3526
   701.24         19.3718
   701.38         19.3920
   701.52         19.4113
   701.66         19.4291
   701.80         19.4468
   701.94         19.4664
   702.08         19.4891
   702.22         19.5145
   702.36         19.5402
   702.50         19.5630
   702.64         19.5831
   702.78         19.6025
   702.92         19.6237
   703.06         19.6518
   703.20         19.6928
   703.34         19.7497
   703.48         19.8204
   703.62         19.8995
   703.76         19.9814
   703.90         20.0621
   704.04         20.1366
   704.18         20.1995
   704.32         20.2452
   704.46         20.2709
   704.60         20.2765
   704.74         20.2643
   704.88         20.2389
   705.02         20.2057
   705.16         20.1703
   705.30         20.1367
   705.44         20.1045
   705.58         20.0709
   705.72         20.0339
   705.86         19.9934
   706.00         19.9516
   706.14         19.9123
   706.28         19.8804
   706.42         19.8600
   706.56         19.8542
   706.70         19.8651
   706.84         19.8917
   706.98         19.9308
   707.12         19.9782
   707.26         20.0279
   707.40         20.0742
   707.54         20.1128
   707.68         20.1393
   707.82         20.1489
   707.96         20.1386
   708.10         20.1098
   708.24         20.0683
   708.38         20.0225
   708.52         19.9795
   708.66         19.9434
   708.80         19.9142
   708.94         19.8888
   709.08         19.8649
   709.22         19.8424
   709.36         19.8211
   709.50         19.8002
   709.64         19.7791
   709.78         19.7571
   709.92         19.7333
   710.06         19.7061
   710.20         19.6739
   710.34         19.6358
   710.48         19.5941
   710.62         19.5543
   710.76         19.5206
   710.90         19.4944
   711.04         19.4759
   711.18         19.4650
   711.32         19.4618
   711.46         19.4664
   711.60         19.4779
   711.74         19.4941
   711.88         19.5120
   712.02         19.5271
   712.16         19.5358
   712.30         19.5371
   712.44         19.5341
   712.58         19.5321
   712.72         19.5354
   712.86         19.5457
   713.00         19.5630
   713.14         19.5875
   713.28         19.6186
   713.42         19.6519
   713.56         19.6818
   713.70         19.7058
   713.84         19.7230
   713.98         19.7332
   714.12         19.7345
   714.26         19.7252
   714.40         19.7081
   714.54         19.6912
   714.68         19.6834
   714.82         19.6910
   714.96         19.7151
   715.10         19.7499
   715.24         19.7856
   715.38         19.8124
   715.52         19.8249
   715.66         19.8213
   715.80         19.8027
   715.94         19.7699
   716.08         19.7226
   716.22         19.6632
   716.36         19.5971
   716.50         19.5293
   716.64         19.4624
   716.78         19.3965
   716.92         19.3324
   717.06         19.2715
   717.20         19.2116
   717.34         19.1451
   717.48         19.0614
   717.62         18.9535
   717.76         18.8224
   717.90         18.6742
   718.04         18.5175
   718.18         18.3608
   718.32         18.2116
   718.46         18.0777
   718.60         17.9654
   718.74         17.8789
   718.88         17.8211
   719.02         17.7927
   719.16         17.7926
   719.30         17.8168
   719.44         17.8585
   719.58         17.9105
   719.72         17.9673
   719.86         18.0238
   720.00         18.0789
   720.14         18.1363
   720.28         18.2030
   720.42         18.2836
   720.56         18.3771
   720.70         18.4806
   720.84         18.5915
   720.98         18.7075
   721.12         18.8249
   721.26         18.9382
   721.40         19.0413
   721.54         19.1276
   721.68         19.1911
   721.82         19.2272
   721.96         19.2322
   722.10         19.2046
   722.24         19.1482
   722.38         19.0714
   722.52         18.9869
   722.66         18.9090
   722.80         18.8486
   722.94         18.8106
   723.08         18.7954
   723.22         18.8014
   723.36         18.8279
   723.50         18.8745
   723.64         18.9376
   723.78         19.0072
   723.92         19.0682
   724.06         19.1053
   724.20         19.1049
   724.34         19.0599
   724.48         18.9731
   724.62         18.8545
   724.76         18.7162
   724.90         18.5718
   725.04         18.4361
   725.18         18.3209
   725.32         18.2320
   725.46         18.1716
   725.60         18.1431
   725.74         18.1493
   725.88         18.1899
   726.02         18.2595
   726.16         18.3475
   726.30         18.4405
   726.44         18.5248
   726.58         18.5893
   726.72         18.6286
   726.86         18.6420
   727.00         18.6308
   727.14         18.5973
   727.28         18.5443
   727.42         18.4741
   727.56         18.3897
   727.70         18.2943
   727.84         18.1921
   727.98         18.0894
   728.12         17.9957
   728.26         17.9195
   728.40         17.8659
   728.54         17.8371
   728.68         17.8326
   728.82         17.8504
   728.96         17.8862
   729.10         17.9328
   729.24         17.9838
   729.38         18.0357
   729.52         18.0869
   729.66         18.1348
   729.80         18.1768
   729.94         18.2106
   730.08         18.2341
   730.22         18.2474
   730.36         18.2533
   730.50         18.2561
   730.64         18.2600
   730.78         18.2688
   730.92         18.2846
   731.06         18.3075
   731.20         18.3355
   731.34         18.3638
   731.48         18.3884
   731.62         18.4073
   731.76         18.4191
   731.90         18.4228
   732.04         18.4181
   732.18         18.4042
   732.32         18.3796
   732.46         18.3447
   732.60         18.3034
   732.74         18.2605
   732.88         18.2194
   733.02         18.1813
   733.16         18.1480
   733.30         18.1215
   733.44         18.1021
   733.58         18.0862
   733.72         18.0671
   733.86         18.0357
   734.00         17.9848
   734.14         17.9119
   734.28         17.8167
   734.42         17.6999
   734.56         17.5659
   734.70         17.4242
   734.84         17.2868
   734.98         17.1640
   735.12         17.0646
   735.26         16.9946
   735.40         16.9555
   735.54         16.9456
   735.68         16.9600
   735.82         16.9919
   735.96         17.0341
   736.10         17.0807
   736.24         17.1273
   736.38         17.1717
   736.52         17.2138
   736.66         17.2558
   736.80         17.2998
   736.94         17.3469
   737.08         17.3966
   737.22         17.4465
   737.36         17.4916
   737.50         17.5236
   737.64         17.5343
   737.78         17.5195
   737.92         17.4791
   738.06         17.4172
   738.20         17.3399
   738.34         17.2541
   738.48         17.1677
   738.62         17.0876
   738.76         17.0186
   738.90         16.9647
   739.04         16.9292
   739.18         16.9151
   739.32         16.9234
   739.46         16.9518
   739.60         16.9946
   739.74         17.0439
   739.88         17.0931
   740.02         17.1384
   740.16         17.1798
   740.30         17.2211
   740.44         17.2664
   740.58         17.3175
   740.72         17.3737
   740.86         17.4331
   741.00         17.4930
   741.14         17.5496
   741.28         17.5973
   741.42         17.6295
   741.56         17.6419
   741.70         17.6318
   741.84         17.5958
   741.98         17.5311
   742.12         17.4397
   742.26         17.3301
   742.40         17.2159
   742.54         17.1122
   742.68         17.0329
   742.82         16.9895
   742.96         16.9895
   743.10         17.0329
   743.24         17.1122
   743.38         17.2159
   743.52         17.3301
   743.66         17.4397
   743.80         17.5311
   743.94         17.5958
   744.08         17.6318
   744.22         17.6419
