# File HD191010
# Wavelength [nm]    Normalized Amplitude
   349.70         6.6092
   349.84         6.6128
   349.98         6.6389
   350.12         6.6791
   350.26         6.7241
   350.40         6.7661
   350.54         6.8001
   350.68         6.8240
   350.82         6.8378
   350.96         6.8439
   351.10         6.8454
   351.24         6.8439
   351.38         6.8378
   351.52         6.8240
   351.66         6.8001
   351.80         6.7661
   351.94         6.7241
   352.08         6.6791
   352.22         6.6389
   352.36         6.6128
   352.50         6.6092
   352.64         6.6337
   352.78         6.6882
   352.92         6.7710
   353.06         6.8776
   353.20         7.0015
   353.34         7.1331
   353.48         7.2608
   353.62         7.3727
   353.76         7.4588
   353.90         7.5127
   354.04         7.5326
   354.18         7.5211
   354.32         7.4834
   354.46         7.4251
   354.60         7.3511
   354.74         7.2659
   354.88         7.1737
   355.02         7.0782
   355.16         6.9823
   355.30         6.8875
   355.44         6.7930
   355.58         6.6977
   355.72         6.6019
   355.86         6.5060
   356.00         6.4097
   356.14         6.3125
   356.28         6.2146
   356.42         6.1168
   356.56         6.0191
   356.70         5.9206
   356.84         5.8195
   356.98         5.7141
   357.12         5.6016
   357.26         5.4792
   357.40         5.3450
   357.54         5.1988
   357.68         5.0434
   357.82         4.8849
   357.96         4.7327
   358.10         4.5994
   358.24         4.4997
   358.38         4.4495
   358.52         4.4633
   358.66         4.5528
   358.80         4.7231
   358.94         4.9723
   359.08         5.2888
   359.22         5.6528
   359.36         6.0401
   359.50         6.4268
   359.64         6.7905
   359.78         7.1091
   359.92         7.3644
   360.06         7.5458
   360.20         7.6519
   360.34         7.6889
   360.48         7.6687
   360.62         7.6075
   360.76         7.5214
   360.90         7.4240
   361.04         7.3263
   361.18         7.2379
   361.32         7.1674
   361.46         7.1223
   361.60         7.1098
   361.74         7.1349
   361.88         7.1998
   362.02         7.3009
   362.16         7.4281
   362.30         7.5660
   362.44         7.6996
   362.58         7.8198
   362.72         7.9242
   362.86         8.0144
   363.00         8.0945
   363.14         8.1691
   363.28         8.2422
   363.42         8.3156
   363.56         8.3887
   363.70         8.4606
   363.84         8.5307
   363.98         8.5982
   364.12         8.6622
   364.26         8.7220
   364.40         8.7758
   364.54         8.8221
   364.68         8.8619
   364.82         8.9017
   364.96         8.9522
   365.10         9.0248
   365.24         9.1261
   365.38         9.2555
   365.52         9.4054
   365.66         9.5625
   365.80         9.7103
   365.94         9.8330
   366.08         9.9180
   366.22         9.9591
   366.36         9.9587
   366.50         9.9270
   366.64         9.8769
   366.78         9.8190
   366.92         9.7615
   367.06         9.7105
   367.20         9.6700
   367.34         9.6425
   367.48         9.6276
   367.62         9.6204
   367.76         9.6128
   367.90         9.5984
   368.04         9.5762
   368.18         9.5508
   368.32         9.5306
   368.46         9.5241
   368.60         9.5383
   368.74         9.5801
   368.88         9.6562
   369.02         9.7724
   369.16         9.9283
   369.30         10.1140
   369.44         10.3120
   369.58         10.5023
   369.72         10.6643
   369.86         10.7791
   370.00         10.8342
   370.14         10.8253
   370.28         10.7591
   370.42         10.6550
   370.56         10.5410
   370.70         10.4440
   370.84         10.3809
   370.98         10.3547
   371.12         10.3583
   371.26         10.3819
   371.40         10.4176
   371.54         10.4581
   371.68         10.4934
   371.82         10.5116
   371.96         10.5024
   372.10         10.4606
   372.24         10.3854
   372.38         10.2786
   372.52         10.1447
   372.66         9.9923
   372.80         9.8334
   372.94         9.6814
   373.08         9.5470
   373.22         9.4343
   373.36         9.3399
   373.50         9.2567
   373.64         9.1785
   373.78         9.1027
   373.92         9.0296
   374.06         8.9619
   374.20         8.9037
   374.34         8.8603
   374.48         8.8365
   374.62         8.8321
   374.76         8.8391
   374.90         8.8472
   375.04         8.8511
   375.18         8.8532
   375.32         8.8604
   375.46         8.8798
   375.60         8.9129
   375.74         8.9551
   375.88         8.9985
   376.02         9.0374
   376.16         9.0711
   376.30         9.1039
   376.44         9.1445
   376.58         9.2058
   376.72         9.3009
   376.86         9.4362
   377.00         9.6100
   377.14         9.8125
   377.28         10.0284
   377.42         10.2418
   377.56         10.4379
   377.70         10.6025
   377.84         10.7210
   377.98         10.7808
   378.12         10.7726
   378.26         10.6919
   378.40         10.5408
   378.54         10.3283
   378.68         10.0677
   378.82         9.7752
   378.96         9.4701
   379.10         9.1760
   379.24         8.9184
   379.38         8.7175
   379.52         8.5853
   379.66         8.5247
   379.80         8.5325
   379.94         8.6002
   380.08         8.7134
   380.22         8.8537
   380.36         9.0008
   380.50         9.1350
   380.64         9.2394
   380.78         9.2990
   380.92         9.3013
   381.06         9.2389
   381.20         9.1110
   381.34         8.9231
   381.48         8.6876
   381.62         8.4224
   381.76         8.1476
   381.90         7.8778
   382.04         7.6208
   382.18         7.3811
   382.32         7.1631
   382.46         6.9722
   382.60         6.8097
   382.74         6.6715
   382.88         6.5515
   383.02         6.4455
   383.16         6.3534
   383.30         6.2794
   383.44         6.2278
   383.58         6.2017
   383.72         6.2016
   383.86         6.2251
   384.00         6.2681
   384.14         6.3257
   384.28         6.3920
   384.42         6.4591
   384.56         6.5165
   384.70         6.5540
   384.84         6.5650
   384.98         6.5481
   385.12         6.5082
   385.26         6.4533
   385.40         6.3928
   385.54         6.3359
   385.68         6.2899
   385.82         6.2583
   385.96         6.2401
   386.10         6.2316
   386.24         6.2299
   386.38         6.2369
   386.52         6.2570
   386.66         6.2938
   386.80         6.3475
   386.94         6.4164
   387.08         6.4992
   387.22         6.5975
   387.36         6.7153
   387.50         6.8577
   387.64         7.0302
   387.78         7.2360
   387.92         7.4749
   388.06         7.7458
   388.20         8.0473
   388.34         8.3768
   388.48         8.7302
   388.62         9.1030
   388.76         9.4898
   388.90         9.8837
   389.04         10.2744
   389.18         10.6466
   389.32         10.9814
   389.46         11.2628
   389.60         11.4807
   389.74         11.6335
   389.88         11.7260
   390.02         11.7662
   390.16         11.7656
   390.30         11.7381
   390.44         11.6971
   390.58         11.6534
   390.72         11.6130
   390.86         11.5741
   391.00         11.5299
   391.14         11.4725
   391.28         11.3938
   391.42         11.2845
   391.56         11.1329
   391.70         10.9251
   391.84         10.6470
   391.98         10.2881
   392.12         9.8455
   392.26         9.3260
   392.40         8.7453
   392.54         8.1259
   392.68         7.4962
   392.82         6.8895
   392.96         6.3401
   393.10         5.8801
   393.24         5.5376
   393.38         5.3358
   393.52         5.2894
   393.66         5.4036
   393.80         5.6726
   393.94         6.0777
   394.08         6.5903
   394.22         7.1762
   394.36         7.8007
   394.50         8.4303
   394.64         9.0353
   394.78         9.5914
   394.92         10.0777
   395.06         10.4747
   395.20         10.7638
   395.34         10.9279
   395.48         10.9521
   395.62         10.8262
   395.76         10.5480
   395.90         10.1283
   396.04         9.5925
   396.18         8.9794
   396.32         8.3385
   396.46         7.7257
   396.60         7.1990
   396.74         6.8128
   396.88         6.6108
   397.02         6.6190
   397.16         6.8429
   397.30         7.2689
   397.44         7.8680
   397.58         8.5992
   397.72         9.4144
   397.86         10.2651
   398.00         11.1067
   398.14         11.9013
   398.28         12.6211
   398.42         13.2486
   398.56         13.7762
   398.70         14.2057
   398.84         14.5477
   398.98         14.8193
   399.12         15.0406
   399.26         15.2292
   399.40         15.3955
   399.54         15.5440
   399.68         15.6768
   399.82         15.7986
   399.96         15.9160
   400.10         16.0357
   400.24         16.1616
   400.38         16.2943
   400.52         16.4321
   400.66         16.5720
   400.80         16.7099
   400.94         16.8414
   401.08         16.9615
   401.22         17.0667
   401.36         17.1569
   401.50         17.2350
   401.64         17.3033
   401.78         17.3602
   401.92         17.3980
   402.06         17.4073
   402.20         17.3836
   402.34         17.3290
   402.48         17.2512
   402.62         17.1614
   402.76         17.0722
   402.90         16.9953
   403.04         16.9391
   403.18         16.9072
   403.32         16.8962
   403.46         16.8966
   403.60         16.8990
   403.74         16.8995
   403.88         16.9001
   404.02         16.9039
   404.16         16.9103
   404.30         16.9139
   404.44         16.9054
   404.58         16.8770
   404.72         16.8275
   404.86         16.7640
   405.00         16.6972
   405.14         16.6355
   405.28         16.5806
   405.42         16.5282
   405.56         16.4718
   405.70         16.4081
   405.84         16.3384
   405.98         16.2689
   406.12         16.2107
   406.26         16.1771
   406.40         16.1746
   406.54         16.1957
   406.68         16.2227
   406.82         16.2400
   406.96         16.2408
   407.10         16.2274
   407.24         16.2077
   407.38         16.1908
   407.52         16.1863
   407.66         16.2031
   407.80         16.2500
   407.94         16.3352
   408.08         16.4663
   408.22         16.6473
   408.36         16.8751
   408.50         17.1359
   408.64         17.4065
   408.78         17.6575
   408.92         17.8565
   409.06         17.9722
   409.20         17.9858
   409.34         17.9000
   409.48         17.7366
   409.62         17.5254
   409.76         17.2947
   409.90         17.0681
   410.04         16.8666
   410.18         16.7104
   410.32         16.6178
   410.46         16.6003
   410.60         16.6588
   410.74         16.7820
   410.88         16.9490
   411.02         17.1328
   411.16         17.3059
   411.30         17.4457
   411.44         17.5365
   411.58         17.5694
   411.72         17.5442
   411.86         17.4685
   412.00         17.3533
   412.14         17.2081
   412.28         17.0406
   412.42         16.8601
   412.56         16.6807
   412.70         16.5213
   412.84         16.4002
   412.98         16.3277
   413.12         16.3016
   413.26         16.3088
   413.40         16.3334
   413.54         16.3623
   413.68         16.3861
   413.82         16.3966
   413.96         16.3852
   414.10         16.3436
   414.24         16.2659
   414.38         16.1502
   414.52         16.0005
   414.66         15.8285
   414.80         15.6518
   414.94         15.4916
   415.08         15.3680
   415.22         15.2967
   415.36         15.2853
   415.50         15.3316
   415.64         15.4255
   415.78         15.5542
   415.92         15.7050
   416.06         15.8636
   416.20         16.0114
   416.34         16.1273
   416.48         16.1921
   416.62         16.1928
   416.76         16.1249
   416.90         15.9928
   417.04         15.8105
   417.18         15.6001
   417.32         15.3891
   417.46         15.2055
   417.60         15.0728
   417.74         15.0056
   417.88         15.0100
   418.02         15.0832
   418.16         15.2154
   418.30         15.3911
   418.44         15.5889
   418.58         15.7821
   418.72         15.9440
   418.86         16.0548
   419.00         16.1057
   419.14         16.0973
   419.28         16.0372
   419.42         15.9402
   419.56         15.8278
   419.70         15.7248
   419.84         15.6539
   419.98         15.6320
   420.12         15.6691
   420.26         15.7646
   420.40         15.9075
   420.54         16.0826
   420.68         16.2769
   420.82         16.4828
   420.96         16.6959
   421.10         16.9113
   421.24         17.1220
   421.38         17.3169
   421.52         17.4816
   421.66         17.6051
   421.80         17.6864
   421.94         17.7353
   422.08         17.7673
   422.22         17.7946
   422.36         17.8230
   422.50         17.8532
   422.64         17.8835
   422.78         17.9119
   422.92         17.9387
   423.06         17.9698
   423.20         18.0173
   423.34         18.0930
   423.48         18.2008
   423.62         18.3320
   423.76         18.4679
   423.90         18.5893
   424.04         18.6854
   424.18         18.7582
   424.32         18.8185
   424.46         18.8772
   424.60         18.9376
   424.74         18.9923
   424.88         19.0280
   425.02         19.0349
   425.16         19.0135
   425.30         18.9756
   425.44         18.9404
   425.58         18.9265
   425.72         18.9444
   425.86         18.9919
   426.00         19.0555
   426.14         19.1152
   426.28         19.1516
   426.42         19.1535
   426.56         19.1206
   426.70         19.0605
   426.84         18.9824
   426.98         18.8939
   427.12         18.8028
   427.26         18.7172
   427.40         18.6432
   427.54         18.5856
   427.68         18.5473
   427.82         18.5267
   427.96         18.5152
   428.10         18.4981
   428.24         18.4614
   428.38         18.3939
   428.52         18.2875
   428.66         18.1372
   428.80         17.9403
   428.94         17.6968
   429.08         17.4100
   429.22         17.0844
   429.36         16.7241
   429.50         16.3338
   429.64         15.9189
   429.78         15.4880
   429.92         15.0540
   430.06         14.6346
   430.20         14.2539
   430.34         13.9436
   430.48         13.7429
   430.62         13.6944
   430.76         13.8341
   430.90         14.1784
   431.04         14.7150
   431.18         15.4037
   431.32         16.1850
   431.46         16.9929
   431.60         17.7698
   431.74         18.4757
   431.88         19.0859
   432.02         19.5877
   432.16         19.9794
   432.30         20.2711
   432.44         20.4825
   432.58         20.6361
   432.72         20.7471
   432.86         20.8210
   433.00         20.8573
   433.14         20.8545
   433.28         20.8116
   433.42         20.7279
   433.56         20.6051
   433.70         20.4512
   433.84         20.2829
   433.98         20.1216
   434.12         19.9912
   434.26         19.9174
   434.40         19.9204
   434.54         20.0092
   434.68         20.1783
   434.82         20.4118
   434.96         20.6874
   435.10         20.9799
   435.24         21.2668
   435.38         21.5328
   435.52         21.7741
   435.66         21.9950
   435.80         22.2005
   435.94         22.3923
   436.08         22.5655
   436.22         22.7074
   436.36         22.7988
   436.50         22.8219
   436.64         22.7694
   436.78         22.6506
   436.92         22.4870
   437.06         22.2988
   437.20         22.0959
   437.34         21.8770
   437.48         21.6391
   437.62         21.3848
   437.76         21.1214
   437.90         20.8556
   438.04         20.5933
   438.18         20.3415
   438.32         20.1098
   438.46         19.9107
   438.60         19.7595
   438.74         19.6685
   438.88         19.6427
   439.02         19.6813
   439.16         19.7817
   439.30         19.9374
   439.44         20.1303
   439.58         20.3320
   439.72         20.5122
   439.86         20.6502
   440.00         20.7439
   440.14         20.8086
   440.28         20.8640
   440.42         20.9226
   440.56         20.9903
   440.70         21.0712
   440.84         21.1701
   440.98         21.2893
   441.12         21.4256
   441.26         21.5716
   441.40         21.7178
   441.54         21.8554
   441.68         21.9792
   441.82         22.0859
   441.96         22.1717
   442.10         22.2330
   442.24         22.2694
   442.38         22.2826
   442.52         22.2780
   442.66         22.2646
   442.80         22.2507
   442.94         22.2385
   443.08         22.2262
   443.22         22.2134
   443.36         22.2043
   443.50         22.2070
   443.64         22.2284
   443.78         22.2723
   443.92         22.3411
   444.06         22.4351
   444.20         22.5486
   444.34         22.6683
   444.48         22.7754
   444.62         22.8518
   444.76         22.8837
   444.90         22.8625
   445.04         22.7847
   445.18         22.6552
   445.32         22.4870
   445.46         22.2950
   445.60         22.0925
   445.74         21.8931
   445.88         21.7136
   446.02         21.5754
   446.16         21.5002
   446.30         21.5048
   446.44         21.5985
   446.58         21.7831
   446.72         22.0518
   446.86         22.3850
   447.00         22.7528
   447.14         23.1248
   447.28         23.4777
   447.42         23.7969
   447.56         24.0740
   447.70         24.3013
   447.84         24.4711
   447.98         24.5771
   448.12         24.6164
   448.26         24.5906
   448.40         24.5073
   448.54         24.3834
   448.68         24.2436
   448.82         24.1140
   448.96         24.0144
   449.10         23.9572
   449.24         23.9516
   449.38         24.0043
   449.52         24.1180
   449.66         24.2939
   449.80         24.5324
   449.94         24.8304
   450.08         25.1751
   450.22         25.5392
   450.36         25.8871
   450.50         26.1870
   450.64         26.4174
   450.78         26.5670
   450.92         26.6328
   451.06         26.6200
   451.20         26.5399
   451.34         26.4053
   451.48         26.2268
   451.62         26.0111
   451.76         25.7637
   451.90         25.4912
   452.04         25.1988
   452.18         24.8904
   452.32         24.5707
   452.46         24.2497
   452.60         23.9441
   452.74         23.6728
   452.88         23.4523
   453.02         23.2958
   453.16         23.2144
   453.30         23.2142
   453.44         23.2920
   453.58         23.4341
   453.72         23.6167
   453.86         23.8103
   454.00         23.9866
   454.14         24.1237
   454.28         24.2066
   454.42         24.2305
   454.56         24.2034
   454.70         24.1438
   454.84         24.0754
   454.98         24.0233
   455.12         24.0099
   455.26         24.0475
   455.40         24.1339
   455.54         24.2584
   455.68         24.4119
   455.82         24.5873
   455.96         24.7755
   456.10         24.9646
   456.24         25.1442
   456.38         25.3075
   456.52         25.4511
   456.66         25.5741
   456.80         25.6740
   456.94         25.7452
   457.08         25.7820
   457.22         25.7814
   457.36         25.7422
   457.50         25.6658
   457.64         25.5577
   457.78         25.4280
   457.92         25.2894
   458.06         25.1551
   458.20         25.0381
   458.34         24.9469
   458.48         24.8823
   458.62         24.8422
   458.76         24.8237
   458.90         24.8222
   459.04         24.8309
   459.18         24.8433
   459.32         24.8552
   459.46         24.8644
   459.60         24.8749
   459.74         24.8999
   459.88         24.9573
   460.02         25.0598
   460.16         25.2105
   460.30         25.4044
   460.44         25.6298
   460.58         25.8697
   460.72         26.1069
   460.86         26.3293
   461.00         26.5315
   461.14         26.7131
   461.28         26.8752
   461.42         27.0178
   461.56         27.1394
   461.70         27.2383
   461.84         27.3155
   461.98         27.3734
   462.12         27.4149
   462.26         27.4407
   462.40         27.4457
   462.54         27.4203
   462.68         27.3546
   462.82         27.2470
   462.96         27.1058
   463.10         26.9438
   463.24         26.7722
   463.38         26.5985
   463.52         26.4258
   463.66         26.2548
   463.80         26.0861
   463.94         25.9235
   464.08         25.7748
   464.22         25.6494
   464.36         25.5543
   464.50         25.4925
   464.64         25.4651
   464.78         25.4737
   464.92         25.5202
   465.06         25.6036
   465.20         25.7181
   465.34         25.8520
   465.48         25.9856
   465.62         26.0917
   465.76         26.1431
   465.90         26.1219
   466.04         26.0266
   466.18         25.8701
   466.32         25.6760
   466.46         25.4756
   466.60         25.3003
   466.74         25.1714
   466.88         25.0968
   467.02         25.0766
   467.16         25.1104
   467.30         25.1985
   467.44         25.3363
   467.58         25.5086
   467.72         25.6916
   467.86         25.8615
   468.00         26.0003
   468.14         26.0991
   468.28         26.1616
   468.42         26.2041
   468.56         26.2447
   468.70         26.2928
   468.84         26.3456
   468.98         26.3951
   469.12         26.4325
   469.26         26.4486
   469.40         26.4355
   469.54         26.3900
   469.68         26.3139
   469.82         26.2123
   469.96         26.0932
   470.10         25.9653
   470.24         25.8358
   470.38         25.7127
   470.52         25.6071
   470.66         25.5340
   470.80         25.5083
   470.94         25.5407
   471.08         25.6342
   471.22         25.7833
   471.36         25.9763
   471.50         26.1981
   471.64         26.4291
   471.78         26.6453
   471.92         26.8235
   472.06         26.9452
   472.20         26.9981
   472.34         26.9789
   472.48         26.8948
   472.62         26.7618
   472.76         26.5999
   472.90         26.4313
   473.04         26.2800
   473.18         26.1700
   473.32         26.1203
   473.46         26.1409
   473.60         26.2329
   473.74         26.3894
   473.88         26.5958
   474.02         26.8300
   474.16         27.0652
   474.30         27.2744
   474.44         27.4379
   474.58         27.5460
   474.72         27.5971
   474.86         27.5948
   475.00         27.5437
   475.14         27.4484
   475.28         27.3129
   475.42         27.1421
   475.56         26.9445
   475.70         26.7354
   475.84         26.5356
   475.98         26.3662
   476.12         26.2437
   476.26         26.1807
   476.40         26.1848
   476.54         26.2572
   476.68         26.3945
   476.82         26.5895
   476.96         26.8329
   477.10         27.1121
   477.24         27.4091
   477.38         27.7007
   477.52         27.9593
   477.66         28.1591
   477.80         28.2828
   477.94         28.3255
   478.08         28.2970
   478.22         28.2208
   478.36         28.1276
   478.50         28.0432
   478.64         27.9817
   478.78         27.9472
   478.92         27.9393
   479.06         27.9559
   479.20         27.9927
   479.34         28.0422
   479.48         28.0944
   479.62         28.1367
   479.76         28.1552
   479.90         28.1393
   480.04         28.0857
   480.18         28.0003
   480.32         27.8966
   480.46         27.7925
   480.60         27.7074
   480.74         27.6589
   480.88         27.6582
   481.02         27.7048
   481.16         27.7848
   481.30         27.8774
   481.44         27.9659
   481.58         28.0418
   481.72         28.1001
   481.86         28.1361
   482.00         28.1460
   482.14         28.1285
   482.28         28.0856
   482.42         28.0237
   482.56         27.9535
   482.70         27.8868
   482.84         27.8316
   482.98         27.7893
   483.12         27.7573
   483.26         27.7324
   483.40         27.7109
   483.54         27.6892
   483.68         27.6620
   483.82         27.6235
   483.96         27.5722
   484.10         27.5125
   484.24         27.4482
   484.38         27.3759
   484.52         27.2870
   484.66         27.1718
   484.80         27.0193
   484.94         26.8141
   485.08         26.5385
   485.22         26.1824
   485.36         25.7492
   485.50         25.2575
   485.64         24.7396
   485.78         24.2350
   485.92         23.7812
   486.06         23.4070
   486.20         23.1300
   486.34         22.9587
   486.48         22.8952
   486.62         22.9367
   486.76         23.0751
   486.90         23.2945
   487.04         23.5730
   487.18         23.8848
   487.32         24.2025
   487.46         24.4987
   487.60         24.7512
   487.74         24.9500
   487.88         25.0975
   488.02         25.2011
   488.16         25.2694
   488.30         25.3136
   488.44         25.3484
   488.58         25.3906
   488.72         25.4570
   488.86         25.5625
   489.00         25.7174
   489.14         25.9246
   489.28         26.1784
   489.42         26.4655
   489.56         26.7659
   489.70         27.0542
   489.84         27.3085
   489.98         27.5143
   490.12         27.6617
   490.26         27.7472
   490.40         27.7746
   490.54         27.7541
   490.68         27.6969
   490.82         27.6117
   490.96         27.5015
   491.10         27.3623
   491.24         27.1873
   491.38         26.9732
   491.52         26.7256
   491.66         26.4618
   491.80         26.2070
   491.94         25.9876
   492.08         25.8266
   492.22         25.7396
   492.36         25.7299
   492.50         25.7911
   492.64         25.9078
   492.78         26.0583
   492.92         26.2214
   493.06         26.3804
   493.20         26.5244
   493.34         26.6469
   493.48         26.7452
   493.62         26.8219
   493.76         26.8893
   493.90         26.9666
   494.04         27.0716
   494.18         27.2158
   494.32         27.4023
   494.46         27.6223
   494.60         27.8545
   494.74         28.0715
   494.88         28.2481
   495.02         28.3693
   495.16         28.4345
   495.30         28.4522
   495.44         28.4328
   495.58         28.3874
   495.72         28.3276
   495.86         28.2618
   496.00         28.1915
   496.14         28.1158
   496.28         28.0389
   496.42         27.9700
   496.56         27.9167
   496.70         27.8798
   496.84         27.8534
   496.98         27.8268
   497.12         27.7840
   497.26         27.7074
   497.40         27.5849
   497.54         27.4173
   497.68         27.2157
   497.82         26.9949
   497.96         26.7682
   498.10         26.5491
   498.24         26.3530
   498.38         26.1989
   498.52         26.1038
   498.66         26.0765
   498.80         26.1147
   498.94         26.2061
   499.08         26.3295
   499.22         26.4585
   499.36         26.5649
   499.50         26.6221
   499.64         26.6145
   499.78         26.5428
   499.92         26.4188
   500.06         26.2576
   500.20         26.0718
   500.34         25.8692
   500.48         25.6539
   500.62         25.4299
   500.76         25.2035
   500.90         24.9830
   501.04         24.7776
   501.18         24.5959
   501.32         24.4461
   501.46         24.3372
   501.60         24.2779
   501.74         24.2764
   501.88         24.3390
   502.02         24.4686
   502.16         24.6659
   502.30         24.9295
   502.44         25.2480
   502.58         25.5938
   502.72         25.9295
   502.86         26.2187
   503.00         26.4335
   503.14         26.5600
   503.28         26.6007
   503.42         26.5717
   503.56         26.4965
   503.70         26.3975
   503.84         26.2922
   503.98         26.1954
   504.12         26.1214
   504.26         26.0854
   504.40         26.1028
   504.54         26.1829
   504.68         26.3272
   504.82         26.5302
   504.96         26.7778
   505.10         27.0495
   505.24         27.3223
   505.38         27.5757
   505.52         27.7970
   505.66         27.9827
   505.80         28.1342
   505.94         28.2506
   506.08         28.3251
   506.22         28.3480
   506.36         28.3128
   506.50         28.2225
   506.64         28.0885
   506.78         27.9226
   506.92         27.7325
   507.06         27.5243
   507.20         27.3066
   507.34         27.0931
   507.48         26.8990
   507.62         26.7353
   507.76         26.6089
   507.90         26.5243
   508.04         26.4870
   508.18         26.5029
   508.32         26.5732
   508.46         26.6910
   508.60         26.8397
   508.74         26.9968
   508.88         27.1387
   509.02         27.2476
   509.16         27.3127
   509.30         27.3283
   509.44         27.2949
   509.58         27.2211
   509.72         27.1208
   509.86         27.0090
   510.00         26.9014
   510.14         26.8115
   510.28         26.7499
   510.42         26.7247
   510.56         26.7418
   510.70         26.8028
   510.84         26.9019
   510.98         27.0251
   511.12         27.1519
   511.26         27.2613
   511.40         27.3394
   511.54         27.3805
   511.68         27.3815
   511.82         27.3378
   511.96         27.2484
   512.10         27.1183
   512.24         26.9575
   512.38         26.7804
   512.52         26.6048
   512.66         26.4488
   512.80         26.3259
   512.94         26.2423
   513.08         26.1960
   513.22         26.1779
   513.36         26.1760
   513.50         26.1766
   513.64         26.1658
   513.78         26.1335
   513.92         26.0772
   514.06         26.0006
   514.20         25.9112
   514.34         25.8217
   514.48         25.7511
   514.62         25.7178
   514.76         25.7335
   514.90         25.8018
   515.04         25.9165
   515.18         26.0610
   515.32         26.2116
   515.46         26.3385
   515.60         26.4094
   515.74         26.3990
   515.88         26.2958
   516.02         26.1019
   516.16         25.8302
   516.30         25.5061
   516.44         25.1691
   516.58         24.8670
   516.72         24.6442
   516.86         24.5359
   517.00         24.5611
   517.14         24.7137
   517.28         24.9633
   517.42         25.2682
   517.56         25.5869
   517.70         25.8826
   517.84         26.1259
   517.98         26.2964
   518.12         26.3821
   518.26         26.3826
   518.40         26.3096
   518.54         26.1818
   518.68         26.0221
   518.82         25.8591
   518.96         25.7248
   519.10         25.6444
   519.24         25.6269
   519.38         25.6649
   519.52         25.7415
   519.66         25.8356
   519.80         25.9295
   519.94         26.0170
   520.08         26.1031
   520.22         26.1938
   520.36         26.2880
   520.50         26.3798
   520.64         26.4628
   520.78         26.5344
   520.92         26.5983
   521.06         26.6633
   521.20         26.7368
   521.34         26.8197
   521.48         26.9037
   521.62         26.9727
   521.76         27.0082
   521.90         26.9987
   522.04         26.9442
   522.18         26.8530
   522.32         26.7374
   522.46         26.6137
   522.60         26.5026
   522.74         26.4247
   522.88         26.3955
   523.02         26.4257
   523.16         26.5207
   523.30         26.6789
   523.44         26.8906
   523.58         27.1383
   523.72         27.3958
   523.86         27.6302
   524.00         27.8122
   524.14         27.9253
   524.28         27.9674
   524.42         27.9486
   524.56         27.8859
   524.70         27.7973
   524.84         27.6990
   524.98         27.6030
   525.12         27.5165
   525.26         27.4387
   525.40         27.3576
   525.54         27.2546
   525.68         27.1127
   525.82         26.9200
   525.96         26.6711
   526.10         26.3707
   526.24         26.0335
   526.38         25.6811
   526.52         25.3402
   526.66         25.0413
   526.80         24.8156
   526.94         24.6879
   527.08         24.6718
   527.22         24.7670
   527.36         24.9597
   527.50         25.2265
   527.64         25.5415
   527.78         25.8828
   527.92         26.2357
   528.06         26.5920
   528.20         26.9485
   528.34         27.3017
   528.48         27.6424
   528.62         27.9557
   528.76         28.2240
   528.90         28.4320
   529.04         28.5692
   529.18         28.6312
   529.32         28.6222
   529.46         28.5550
   529.60         28.4478
   529.74         28.3235
   529.88         28.2073
   530.02         28.1233
   530.16         28.0908
   530.30         28.1197
   530.44         28.2069
   530.58         28.3365
   530.72         28.4838
   530.86         28.6234
   531.00         28.7334
   531.14         28.7979
   531.28         28.8080
   531.42         28.7615
   531.56         28.6622
   531.70         28.5159
   531.84         28.3271
   531.98         28.1057
   532.12         27.8695
   532.26         27.6392
   532.40         27.4347
   532.54         27.2729
   532.68         27.1666
   532.82         27.1217
   532.96         27.1365
   533.10         27.2030
   533.24         27.3120
   533.38         27.4557
   533.52         27.6261
   533.66         27.8097
   533.80         27.9879
   533.94         28.1427
   534.08         28.2612
   534.22         28.3398
   534.36         28.3844
   534.50         28.4089
   534.64         28.4334
   534.78         28.4765
   534.92         28.5502
   535.06         28.6569
   535.20         28.7890
   535.34         28.9303
   535.48         29.0613
   535.62         29.1644
   535.76         29.2263
   535.90         29.2368
   536.04         29.1884
   536.18         29.0774
   536.32         28.9088
   536.46         28.7013
   536.60         28.4817
   536.74         28.2786
   536.88         28.1177
   537.02         28.0163
   537.16         27.9813
   537.30         28.0110
   537.44         28.0970
   537.58         28.2247
   537.72         28.3739
   537.86         28.5211
   538.00         28.6457
   538.14         28.7295
   538.28         28.7573
   538.42         28.7198
   538.56         28.6159
   538.70         28.4528
   538.84         28.2437
   538.98         28.0069
   539.12         27.7612
   539.26         27.5199
   539.40         27.2912
   539.54         27.0784
   539.68         26.8826
   539.82         26.7081
   539.96         26.5611
   540.10         26.4468
   540.24         26.3693
   540.38         26.3305
   540.52         26.3316
   540.66         26.3739
   540.80         26.4559
   540.94         26.5738
   541.08         26.7219
   541.22         26.8921
   541.36         27.0739
   541.50         27.2563
   541.64         27.4305
   541.78         27.5898
   541.92         27.7266
   542.06         27.8330
   542.20         27.9045
   542.34         27.9427
   542.48         27.9526
   542.62         27.9388
   542.76         27.9088
   542.90         27.8757
   543.04         27.8545
   543.18         27.8586
   543.32         27.8951
   543.46         27.9616
   543.60         28.0486
   543.74         28.1446
   543.88         28.2418
   544.02         28.3378
   544.16         28.4322
   544.30         28.5221
   544.44         28.5994
   544.58         28.6530
   544.72         28.6761
   544.86         28.6712
   545.00         28.6467
   545.14         28.6113
   545.28         28.5702
   545.42         28.5287
   545.56         28.4917
   545.70         28.4611
   545.84         28.4353
   545.98         28.4093
   546.12         28.3778
   546.26         28.3389
   546.40         28.2935
   546.54         28.2412
   546.68         28.1751
   546.82         28.0839
   546.96         27.9604
   547.10         27.8065
   547.24         27.6326
   547.38         27.4559
   547.52         27.2930
   547.66         27.1552
   547.80         27.0490
   547.94         26.9807
   548.08         26.9585
   548.22         26.9888
   548.36         27.0695
   548.50         27.1893
   548.64         27.3312
   548.78         27.4790
   548.92         27.6201
   549.06         27.7453
   549.20         27.8481
   549.34         27.9254
   549.48         27.9790
   549.62         28.0122
   549.76         28.0266
   549.90         28.0230
   550.04         28.0044
   550.18         27.9735
   550.32         27.9310
   550.46         27.8786
   550.60         27.8227
   550.74         27.7724
   550.88         27.7365
   551.02         27.7209
   551.16         27.7293
   551.30         27.7649
   551.44         27.8284
   551.58         27.9138
   551.72         28.0081
   551.86         28.0957
   552.00         28.1629
   552.14         28.2010
   552.28         28.2068
   552.42         28.1826
   552.56         28.1345
   552.70         28.0715
   552.84         28.0037
   552.98         27.9414
   553.12         27.8964
   553.26         27.8778
   553.40         27.8864
   553.54         27.9174
   553.68         27.9630
   553.82         28.0160
   553.96         28.0716
   554.10         28.1261
   554.24         28.1758
   554.38         28.2187
   554.52         28.2563
   554.66         28.2928
   554.80         28.3340
   554.94         28.3838
   555.08         28.4420
   555.22         28.5048
   555.36         28.5666
   555.50         28.6201
   555.64         28.6557
   555.78         28.6641
   555.92         28.6402
   556.06         28.5843
   556.20         28.5025
   556.34         28.4041
   556.48         28.2984
   556.62         28.1934
   556.76         28.0967
   556.90         28.0155
   557.04         27.9557
   557.18         27.9200
   557.32         27.9076
   557.46         27.9133
   557.60         27.9251
   557.74         27.9279
   557.88         27.9087
   558.02         27.8601
   558.16         27.7805
   558.30         27.6723
   558.44         27.5425
   558.58         27.4014
   558.72         27.2605
   558.86         27.1320
   559.00         27.0243
   559.14         26.9419
   559.28         26.8878
   559.42         26.8654
   559.56         26.8779
   559.70         26.9256
   559.84         27.0064
   559.98         27.1169
   560.12         27.2514
   560.26         27.4013
   560.40         27.5555
   560.54         27.7020
   560.68         27.8304
   560.82         27.9338
   560.96         28.0089
   561.10         28.0560
   561.24         28.0778
   561.38         28.0765
   561.52         28.0533
   561.66         28.0109
   561.80         27.9585
   561.94         27.9127
   562.08         27.8912
   562.22         27.9055
   562.36         27.9569
   562.50         28.0381
   562.64         28.1363
   562.78         28.2357
   562.92         28.3216
   563.06         28.3830
   563.20         28.4139
   563.34         28.4163
   563.48         28.3977
   563.62         28.3672
   563.76         28.3325
   563.90         28.2983
   564.04         28.2687
   564.18         28.2489
   564.32         28.2436
   564.46         28.2532
   564.60         28.2700
   564.74         28.2783
   564.88         28.2603
   565.02         28.2036
   565.16         28.1026
   565.30         27.9585
   565.44         27.7805
   565.58         27.5842
   565.72         27.3860
   565.86         27.2018
   566.00         27.0507
   566.14         26.9533
   566.28         26.9255
   566.42         26.9740
   566.56         27.0972
   566.70         27.2881
   566.84         27.5307
   566.98         27.8005
   567.12         28.0696
   567.26         28.3111
   567.40         28.5031
   567.54         28.6325
   567.68         28.6938
   567.82         28.6863
   567.96         28.6153
   568.10         28.4933
   568.24         28.3396
   568.38         28.1780
   568.52         28.0354
   568.66         27.9360
   568.80         27.8932
   568.94         27.9074
   569.08         27.9676
   569.22         28.0573
   569.36         28.1568
   569.50         28.2439
   569.64         28.2990
   569.78         28.3071
   569.92         28.2583
   570.06         28.1519
   570.20         27.9972
   570.34         27.8135
   570.48         27.6265
   570.62         27.4646
   570.76         27.3546
   570.90         27.3155
   571.04         27.3560
   571.18         27.4733
   571.32         27.6545
   571.46         27.8806
   571.60         28.1297
   571.74         28.3796
   571.88         28.6105
   572.02         28.8068
   572.16         28.9588
   572.30         29.0641
   572.44         29.1257
   572.58         29.1524
   572.72         29.1569
   572.86         29.1528
   573.00         29.1513
   573.14         29.1589
   573.28         29.1772
   573.42         29.2054
   573.56         29.2395
   573.70         29.2722
   573.84         29.2950
   573.98         29.3005
   574.12         29.2833
   574.26         29.2388
   574.40         29.1649
   574.54         29.0653
   574.68         28.9491
   574.82         28.8273
   574.96         28.7093
   575.10         28.6006
   575.24         28.5045
   575.38         28.4258
   575.52         28.3726
   575.66         28.3539
   575.80         28.3755
   575.94         28.4374
   576.08         28.5312
   576.22         28.6425
   576.36         28.7554
   576.50         28.8571
   576.64         28.9377
   576.78         28.9892
   576.92         29.0037
   577.06         28.9725
   577.20         28.8886
   577.34         28.7517
   577.48         28.5676
   577.62         28.3470
   577.76         28.1069
   577.90         27.8680
   578.04         27.6526
   578.18         27.4807
   578.32         27.3654
   578.46         27.3118
   578.60         27.3175
   578.74         27.3750
   578.88         27.4774
   579.02         27.6180
   579.16         27.7875
   579.30         27.9700
   579.44         28.1456
   579.58         28.2952
   579.72         28.4067
   579.86         28.4781
   580.00         28.5160
   580.14         28.5311
   580.28         28.5348
   580.42         28.5359
   580.56         28.5386
   580.70         28.5482
   580.84         28.5712
   580.98         28.6105
   581.12         28.6665
   581.26         28.7379
   581.40         28.8237
   581.54         28.9215
   581.68         29.0251
   581.82         29.1249
   581.96         29.2120
   582.10         29.2830
   582.24         29.3392
   582.38         29.3828
   582.52         29.4182
   582.66         29.4519
   582.80         29.4895
   582.94         29.5335
   583.08         29.5846
   583.22         29.6438
   583.36         29.7124
   583.50         29.7886
   583.64         29.8670
   583.78         29.9402
   583.92         30.0015
   584.06         30.0429
   584.20         30.0547
   584.34         30.0275
   584.48         29.9552
   584.62         29.8376
   584.76         29.6802
   584.90         29.4942
   585.04         29.2966
   585.18         29.1065
   585.32         28.9422
   585.46         28.8183
   585.60         28.7479
   585.74         28.7383
   585.88         28.7893
   586.02         28.8960
   586.16         29.0495
   586.30         29.2345
   586.44         29.4309
   586.58         29.6201
   586.72         29.7844
   586.86         29.9080
   587.00         29.9807
   587.14         29.9997
   587.28         29.9681
   587.42         29.8922
   587.56         29.7781
   587.70         29.6277
   587.84         29.4326
   587.98         29.1782
   588.12         28.8584
   588.26         28.4781
   588.40         28.0435
   588.54         27.5611
   588.68         27.0430
   588.82         26.5115
   588.96         25.9960
   589.10         25.5326
   589.24         25.1591
   589.38         24.9058
   589.52         24.7912
   589.66         24.8237
   589.80         24.9990
   589.94         25.2991
   590.08         25.6951
   590.22         26.1501
   590.36         26.6221
   590.50         27.0722
   590.64         27.4752
   590.78         27.8201
   590.92         28.0992
   591.06         28.3053
   591.20         28.4404
   591.34         28.5196
   591.48         28.5648
   591.62         28.5951
   591.76         28.6228
   591.90         28.6516
   592.04         28.6794
   592.18         28.7041
   592.32         28.7245
   592.46         28.7381
   592.60         28.7427
   592.74         28.7375
   592.88         28.7210
   593.02         28.6911
   593.16         28.6486
   593.30         28.5946
   593.44         28.5314
   593.58         28.4617
   593.72         28.3868
   593.86         28.3084
   594.00         28.2284
   594.14         28.1470
   594.28         28.0615
   594.42         27.9687
   594.56         27.8709
   594.70         27.7774
   594.84         27.6985
   594.98         27.6411
   595.12         27.6083
   595.26         27.6019
   595.40         27.6229
   595.54         27.6708
   595.68         27.7430
   595.82         27.8355
   595.96         27.9416
   596.10         28.0529
   596.24         28.1590
   596.38         28.2470
   596.52         28.3042
   596.66         28.3214
   596.80         28.2961
   596.94         28.2313
   597.08         28.1342
   597.22         28.0137
   597.36         27.8763
   597.50         27.7287
   597.64         27.5814
   597.78         27.4471
   597.92         27.3371
   598.06         27.2587
   598.20         27.2139
   598.34         27.2021
   598.48         27.2194
   598.62         27.2569
   598.76         27.3032
   598.90         27.3486
   599.04         27.3861
   599.18         27.4127
   599.32         27.4290
   599.46         27.4364
   599.60         27.4347
   599.74         27.4210
   599.88         27.3934
   600.02         27.3528
   600.16         27.3020
   600.30         27.2447
   600.44         27.1837
   600.58         27.1191
   600.72         27.0509
   600.86         26.9791
   601.00         26.9031
   601.14         26.8224
   601.28         26.7372
   601.42         26.6506
   601.56         26.5676
   601.70         26.4946
   601.84         26.4372
   601.98         26.3993
   602.12         26.3831
   602.26         26.3907
   602.40         26.4258
   602.54         26.4909
   602.68         26.5843
   602.82         26.6992
   602.96         26.8246
   603.10         26.9464
   603.24         27.0501
   603.38         27.1248
   603.52         27.1648
   603.66         27.1694
   603.80         27.1442
   603.94         27.0988
   604.08         27.0427
   604.22         26.9847
   604.36         26.9320
   604.50         26.8888
   604.64         26.8583
   604.78         26.8442
   604.92         26.8500
   605.06         26.8749
   605.20         26.9108
   605.34         26.9466
   605.48         26.9738
   605.62         26.9887
   605.76         26.9941
   605.90         26.9961
   606.04         27.0015
   606.18         27.0160
   606.32         27.0443
   606.46         27.0900
   606.60         27.1516
   606.74         27.2217
   606.88         27.2912
   607.02         27.3520
   607.16         27.3965
   607.30         27.4172
   607.44         27.4073
   607.58         27.3619
   607.72         27.2807
   607.86         27.1683
   608.00         27.0338
   608.14         26.8873
   608.28         26.7386
   608.42         26.5980
   608.56         26.4747
   608.70         26.3739
   608.84         26.2964
   608.98         26.2384
   609.12         26.1912
   609.26         26.1450
   609.40         26.0948
   609.54         26.0408
   609.68         25.9874
   609.82         25.9414
   609.96         25.9111
   610.10         25.9032
   610.24         25.9212
   610.38         25.9648
   610.52         26.0298
   610.66         26.1096
   610.80         26.1977
   610.94         26.2874
   611.08         26.3703
   611.22         26.4375
   611.36         26.4827
   611.50         26.5032
   611.64         26.4993
   611.78         26.4737
   611.92         26.4328
   612.06         26.3836
   612.20         26.3315
   612.34         26.2795
   612.48         26.2253
   612.62         26.1598
   612.76         26.0741
   612.90         25.9666
   613.04         25.8423
   613.18         25.7089
   613.32         25.5757
   613.46         25.4527
   613.60         25.3507
   613.74         25.2804
   613.88         25.2502
   614.02         25.2638
   614.16         25.3195
   614.30         25.4104
   614.44         25.5265
   614.58         25.6555
   614.72         25.7845
   614.86         25.8991
   615.00         25.9822
   615.14         26.0169
   615.28         25.9956
   615.42         25.9261
   615.56         25.8252
   615.70         25.7075
   615.84         25.5831
   615.98         25.4605
   616.12         25.3484
   616.26         25.2539
   616.40         25.1810
   616.54         25.1314
   616.68         25.1080
   616.82         25.1135
   616.96         25.1485
   617.10         25.2118
   617.24         25.3010
   617.38         25.4105
   617.52         25.5308
   617.66         25.6512
   617.80         25.7635
   617.94         25.8622
   618.08         25.9407
   618.22         25.9910
   618.36         26.0072
   618.50         25.9902
   618.64         25.9484
   618.78         25.8945
   618.92         25.8405
   619.06         25.7967
   619.20         25.7731
   619.34         25.7784
   619.48         25.8182
   619.62         25.8940
   619.76         26.0023
   619.90         26.1343
   620.04         26.2760
   620.18         26.4107
   620.32         26.5217
   620.46         26.5945
   620.60         26.6196
   620.74         26.5936
   620.88         26.5200
   621.02         26.4073
   621.16         26.2674
   621.30         26.1136
   621.44         25.9590
   621.58         25.8151
   621.72         25.6925
   621.86         25.5977
   622.00         25.5312
   622.14         25.4898
   622.28         25.4704
   622.42         25.4691
   622.56         25.4796
   622.70         25.4927
   622.84         25.5006
   622.98         25.4994
   623.12         25.4885
   623.26         25.4680
   623.40         25.4355
   623.54         25.3886
   623.68         25.3278
   623.82         25.2575
   623.96         25.1833
   624.10         25.1089
   624.24         25.0369
   624.38         24.9683
   624.52         24.9030
   624.66         24.8436
   624.80         24.7977
   624.94         24.7732
   625.08         24.7748
   625.22         24.8029
   625.36         24.8569
   625.50         24.9362
   625.64         25.0387
   625.78         25.1579
   625.92         25.2843
   626.06         25.4099
   626.20         25.5305
   626.34         25.6440
   626.48         25.7457
   626.62         25.8260
   626.76         25.8720
   626.90         25.8721
   627.04         25.8218
   627.18         25.7273
   627.32         25.6029
   627.46         25.4661
   627.60         25.3342
   627.74         25.2232
   627.88         25.1441
   628.02         25.1014
   628.16         25.0958
   628.30         25.1256
   628.44         25.1862
   628.58         25.2693
   628.72         25.3641
   628.86         25.4578
   629.00         25.5349
   629.14         25.5812
   629.28         25.5892
   629.42         25.5592
   629.56         25.4984
   629.70         25.4200
   629.84         25.3375
   629.98         25.2605
   630.12         25.1953
   630.26         25.1457
   630.40         25.1115
   630.54         25.0883
   630.68         25.0705
   630.82         25.0528
   630.96         25.0306
   631.10         25.0005
   631.24         24.9622
   631.38         24.9207
   631.52         24.8848
   631.66         24.8649
   631.80         24.8707
   631.94         24.9079
   632.08         24.9757
   632.22         25.0684
   632.36         25.1774
   632.50         25.2891
   632.64         25.3872
   632.78         25.4592
   632.92         25.4978
   633.06         25.4999
   633.20         25.4657
   633.34         25.3994
   633.48         25.3091
   633.62         25.2073
   633.76         25.1090
   633.90         25.0286
   634.04         24.9765
   634.18         24.9574
   634.32         24.9708
   634.46         25.0117
   634.60         25.0716
   634.74         25.1405
   634.88         25.2083
   635.02         25.2639
   635.16         25.2982
   635.30         25.3089
   635.44         25.3000
   635.58         25.2762
   635.72         25.2413
   635.86         25.1984
   636.00         25.1518
   636.14         25.1091
   636.28         25.0806
   636.42         25.0737
   636.56         25.0905
   636.70         25.1286
   636.84         25.1839
   636.98         25.2510
   637.12         25.3236
   637.26         25.3949
   637.40         25.4583
   637.54         25.5096
   637.68         25.5483
   637.82         25.5779
   637.96         25.6036
   638.10         25.6279
   638.24         25.6505
   638.38         25.6706
   638.52         25.6896
   638.66         25.7100
   638.80         25.7326
   638.94         25.7535
   639.08         25.7671
   639.22         25.7713
   639.36         25.7673
   639.50         25.7561
   639.64         25.7372
   639.78         25.7096
   639.92         25.6728
   640.06         25.6273
   640.20         25.5756
   640.34         25.5218
   640.48         25.4693
   640.62         25.4200
   640.76         25.3747
   640.90         25.3323
   641.04         25.2924
   641.18         25.2562
   641.32         25.2260
   641.46         25.2054
   641.60         25.2001
   641.74         25.2154
   641.88         25.2516
   642.02         25.3018
   642.16         25.3563
   642.30         25.4076
   642.44         25.4520
   642.58         25.4876
   642.72         25.5120
   642.86         25.5243
   643.00         25.5264
   643.14         25.5218
   643.28         25.5140
   643.42         25.5053
   643.56         25.4990
   643.70         25.4981
   643.84         25.5023
   643.98         25.5083
   644.12         25.5111
   644.26         25.5042
   644.40         25.4805
   644.54         25.4351
   644.68         25.3684
   644.82         25.2884
   644.96         25.2069
   645.10         25.1321
   645.24         25.0663
   645.38         25.0124
   645.52         24.9763
   645.66         24.9629
   645.80         24.9725
   645.94         24.9993
   646.08         25.0355
   646.22         25.0747
   646.36         25.1113
   646.50         25.1438
   646.64         25.1770
   646.78         25.2171
   646.92         25.2669
   647.06         25.3259
   647.20         25.3913
   647.34         25.4609
   647.48         25.5312
   647.62         25.5960
   647.76         25.6478
   647.90         25.6821
   648.04         25.6969
   648.18         25.6879
   648.32         25.6465
   648.46         25.5633
   648.60         25.4341
   648.74         25.2637
   648.88         25.0655
   649.02         24.8583
   649.16         24.6618
   649.30         24.4946
   649.44         24.3720
   649.58         24.3058
   649.72         24.3046
   649.86         24.3735
   650.00         24.5121
   650.14         24.7129
   650.28         24.9608
   650.42         25.2349
   650.56         25.5104
   650.70         25.7617
   650.84         25.9673
   650.98         26.1158
   651.12         26.2073
   651.26         26.2517
   651.40         26.2646
   651.54         26.2608
   651.68         26.2514
   651.82         26.2428
   651.96         26.2403
   652.10         26.2490
   652.24         26.2719
   652.38         26.3099
   652.52         26.3602
   652.66         26.4180
   652.80         26.4785
   652.94         26.5387
   653.08         26.5961
   653.22         26.6479
   653.36         26.6918
   653.50         26.7249
   653.64         26.7443
   653.78         26.7472
   653.92         26.7316
   654.06         26.6946
   654.20         26.6329
   654.34         26.5441
   654.48         26.4289
   654.62         26.2907
   654.76         26.1345
   654.90         25.9596
   655.04         25.7550
   655.18         25.4995
   655.32         25.1772
   655.46         24.7912
   655.60         24.3620
   655.74         23.9194
   655.88         23.4956
   656.02         23.1232
   656.16         22.8333
   656.30         22.6520
   656.44         22.5959
   656.58         22.6697
   656.72         22.8658
   656.86         23.1667
   657.00         23.5452
   657.14         23.9669
   657.28         24.3951
   657.42         24.7928
   657.56         25.1269
   657.70         25.3772
   657.84         25.5439
   657.98         25.6446
   658.12         25.7009
   658.26         25.7245
   658.40         25.7199
   658.54         25.6900
   658.68         25.6402
   658.82         25.5782
   658.96         25.5131
   659.10         25.4538
   659.24         25.4070
   659.38         25.3754
   659.52         25.3575
   659.66         25.3493
   659.80         25.3472
   659.94         25.3489
   660.08         25.3537
   660.22         25.3614
   660.36         25.3715
   660.50         25.3818
   660.64         25.3899
   660.78         25.3959
   660.92         25.4037
   661.06         25.4193
   661.20         25.4465
   661.34         25.4865
   661.48         25.5377
   661.62         25.5957
   661.76         25.6532
   661.90         25.7022
   662.04         25.7366
   662.18         25.7515
   662.32         25.7420
   662.46         25.7063
   662.60         25.6480
   662.74         25.5733
   662.88         25.4889
   663.02         25.4000
   663.16         25.3119
   663.30         25.2291
   663.44         25.1559
   663.58         25.0976
   663.72         25.0591
   663.86         25.0430
   664.00         25.0488
   664.14         25.0733
   664.28         25.1118
   664.42         25.1597
   664.56         25.2096
   664.70         25.2544
   664.84         25.2888
   664.98         25.3097
   665.12         25.3179
   665.26         25.3140
   665.40         25.2967
   665.54         25.2649
   665.68         25.2186
   665.82         25.1608
   665.96         25.0970
   666.10         25.0334
   666.24         24.9756
   666.38         24.9266
   666.52         24.8862
   666.66         24.8510
   666.80         24.8173
   666.94         24.7830
   667.08         24.7474
   667.22         24.7111
   667.36         24.6767
   667.50         24.6473
   667.64         24.6250
   667.78         24.6123
   667.92         24.6131
   668.06         24.6317
   668.20         24.6707
   668.34         24.7289
   668.48         24.8023
   668.62         24.8848
   668.76         24.9682
   668.90         25.0446
   669.04         25.1076
   669.18         25.1513
   669.32         25.1714
   669.46         25.1682
   669.60         25.1459
   669.74         25.1097
   669.88         25.0639
   670.02         25.0121
   670.16         24.9569
   670.30         24.9005
   670.44         24.8445
   670.58         24.7884
   670.72         24.7294
   670.86         24.6665
   671.00         24.6022
   671.14         24.5411
   671.28         24.4882
   671.42         24.4460
   671.56         24.4146
   671.70         24.3936
   671.84         24.3825
   671.98         24.3806
   672.12         24.3875
   672.26         24.4033
   672.40         24.4278
   672.54         24.4601
   672.68         24.4986
   672.82         24.5412
   672.96         24.5843
   673.10         24.6231
   673.24         24.6548
   673.38         24.6803
   673.52         24.7023
   673.66         24.7205
   673.80         24.7313
   673.94         24.7299
   674.08         24.7129
   674.22         24.6806
   674.36         24.6376
   674.50         24.5901
   674.64         24.5431
   674.78         24.5012
   674.92         24.4705
   675.06         24.4576
   675.20         24.4677
   675.34         24.5030
   675.48         24.5611
   675.62         24.6358
   675.76         24.7189
   675.90         24.8020
   676.04         24.8759
   676.18         24.9308
   676.32         24.9588
   676.46         24.9562
   676.60         24.9232
   676.74         24.8654
   676.88         24.7929
   677.02         24.7168
   677.16         24.6473
   677.30         24.5919
   677.44         24.5559
   677.58         24.5431
   677.72         24.5546
   677.86         24.5879
   678.00         24.6369
   678.14         24.6938
   678.28         24.7504
   678.42         24.7990
   678.56         24.8333
   678.70         24.8490
   678.84         24.8439
   678.98         24.8179
   679.12         24.7734
   679.26         24.7150
   679.40         24.6481
   679.54         24.5776
   679.68         24.5077
   679.82         24.4413
   679.96         24.3810
   680.10         24.3294
   680.24         24.2895
   680.38         24.2634
   680.52         24.2524
   680.66         24.2555
   680.80         24.2698
   680.94         24.2913
   681.08         24.3155
   681.22         24.3389
   681.36         24.3593
   681.50         24.3750
   681.64         24.3853
   681.78         24.3898
   681.92         24.3879
   682.06         24.3790
   682.20         24.3635
   682.34         24.3415
   682.48         24.3124
   682.62         24.2761
   682.76         24.2321
   682.90         24.1794
   683.04         24.1166
   683.18         24.0425
   683.32         23.9567
   683.46         23.8602
   683.60         23.7566
   683.74         23.6516
   683.88         23.5523
   684.02         23.4663
   684.16         23.3996
   684.30         23.3550
   684.44         23.3332
   684.58         23.3320
   684.72         23.3466
   684.86         23.3703
   685.00         23.3968
   685.14         23.4205
   685.28         23.4356
   685.42         23.4340
   685.56         23.4004
   685.70         23.3134
   685.84         23.1528
   685.98         22.9062
   686.12         22.5702
   686.26         22.1511
   686.40         21.6660
   686.54         21.1416
   686.68         20.6118
   686.82         20.1137
   686.96         19.6841
   687.10         19.3547
   687.24         19.1471
   687.38         19.0695
   687.52         19.1163
   687.66         19.2694
   687.80         19.5000
   687.94         19.7730
   688.08         20.0510
   688.22         20.3002
   688.36         20.5003
   688.50         20.6458
   688.64         20.7420
   688.78         20.7995
   688.92         20.8310
   689.06         20.8501
   689.20         20.8697
   689.34         20.9003
   689.48         20.9494
   689.62         21.0201
   689.76         21.1111
   689.90         21.2181
   690.04         21.3359
   690.18         21.4597
   690.32         21.5843
   690.46         21.7048
   690.60         21.8167
   690.74         21.9168
   690.88         22.0045
   691.02         22.0816
   691.16         22.1510
   691.30         22.2175
   691.44         22.2855
   691.58         22.3588
   691.72         22.4403
   691.86         22.5301
   692.00         22.6266
   692.14         22.7258
   692.28         22.8198
   692.42         22.9013
   692.56         22.9659
   692.70         23.0124
   692.84         23.0415
   692.98         23.0556
   693.12         23.0600
   693.26         23.0606
   693.40         23.0621
   693.54         23.0671
   693.68         23.0759
   693.82         23.0874
   693.96         23.0994
   694.10         23.1074
   694.24         23.1062
   694.38         23.0915
   694.52         23.0611
   694.66         23.0165
   694.80         22.9602
   694.94         22.8968
   695.08         22.8342
   695.22         22.7816
   695.36         22.7454
   695.50         22.7291
   695.64         22.7344
   695.78         22.7616
   695.92         22.8080
   696.06         22.8705
   696.20         22.9464
   696.34         23.0324
   696.48         23.1211
   696.62         23.1997
   696.76         23.2553
   696.90         23.2812
   697.04         23.2769
   697.18         23.2464
   697.32         23.1956
   697.46         23.1315
   697.60         23.0612
   697.74         22.9925
   697.88         22.9318
   698.02         22.8826
   698.16         22.8471
   698.30         22.8271
   698.44         22.8222
   698.58         22.8305
   698.72         22.8471
   698.86         22.8633
   699.00         22.8688
   699.14         22.8548
   699.28         22.8182
   699.42         22.7637
   699.56         22.6999
   699.70         22.6359
   699.84         22.5793
   699.98         22.5358
   700.12         22.5083
   700.26         22.4972
   700.40         22.4992
   700.54         22.5078
   700.68         22.5172
   700.82         22.5253
   700.96         22.5310
   701.10         22.5324
   701.24         22.5267
   701.38         22.5108
   701.52         22.4858
   701.66         22.4572
   701.80         22.4319
   701.94         22.4171
   702.08         22.4190
   702.22         22.4413
   702.36         22.4840
   702.50         22.5435
   702.64         22.6135
   702.78         22.6862
   702.92         22.7560
   703.06         22.8208
   703.20         22.8808
   703.34         22.9383
   703.48         22.9955
   703.62         23.0531
   703.76         23.1110
   703.90         23.1688
   704.04         23.2259
   704.18         23.2810
   704.32         23.3321
   704.46         23.3768
   704.60         23.4129
   704.74         23.4392
   704.88         23.4547
   705.02         23.4598
   705.16         23.4561
   705.30         23.4451
   705.44         23.4281
   705.58         23.4054
   705.72         23.3768
   705.86         23.3432
   706.00         23.3087
   706.14         23.2782
   706.28         23.2546
   706.42         23.2383
   706.56         23.2297
   706.70         23.2306
   706.84         23.2451
   706.98         23.2778
   707.12         23.3287
   707.26         23.3921
   707.40         23.4595
   707.54         23.5208
   707.68         23.5662
   707.82         23.5878
   707.96         23.5799
   708.10         23.5402
   708.24         23.4713
   708.38         23.3808
   708.52         23.2791
   708.66         23.1764
   708.80         23.0815
   708.94         23.0018
   709.08         22.9428
   709.22         22.9068
   709.36         22.8939
   709.50         22.9008
   709.64         22.9211
   709.78         22.9466
   709.92         22.9707
   710.06         22.9895
   710.20         23.0006
   710.34         23.0030
   710.48         22.9969
   710.62         22.9831
   710.76         22.9619
   710.90         22.9339
   711.04         22.8998
   711.18         22.8615
   711.32         22.8222
   711.46         22.7849
   711.60         22.7513
   711.74         22.7207
   711.88         22.6917
   712.02         22.6649
   712.16         22.6435
   712.30         22.6324
   712.44         22.6367
   712.58         22.6591
   712.72         22.6993
   712.86         22.7561
   713.00         22.8272
   713.14         22.9083
   713.28         22.9929
   713.42         23.0731
   713.56         23.1417
   713.70         23.1928
   713.84         23.2226
   713.98         23.2303
   714.12         23.2163
   714.26         23.1832
   714.40         23.1368
   714.54         23.0868
   714.68         23.0462
   714.82         23.0240
   714.96         23.0236
   715.10         23.0410
   715.24         23.0664
   715.38         23.0881
   715.52         23.0958
   715.66         23.0831
   715.80         23.0466
   715.94         22.9832
   716.08         22.8930
   716.22         22.7809
   716.36         22.6557
   716.50         22.5275
   716.64         22.4065
   716.78         22.2993
   716.92         22.2073
   717.06         22.1261
   717.20         22.0485
   717.34         21.9644
   717.48         21.8628
   717.62         21.7371
   717.76         21.5848
   717.90         21.4079
   718.04         21.2139
   718.18         21.0156
   718.32         20.8292
   718.46         20.6697
   718.60         20.5471
   718.74         20.4678
   718.88         20.4336
   719.02         20.4421
   719.16         20.4870
   719.30         20.5591
   719.44         20.6456
   719.58         20.7322
   719.72         20.8071
   719.86         20.8662
   720.00         20.9132
   720.14         20.9577
   720.28         21.0108
   720.42         21.0797
   720.56         21.1681
   720.70         21.2787
   720.84         21.4139
   720.98         21.5734
   721.12         21.7494
   721.26         21.9276
   721.40         22.0951
   721.54         22.2436
   721.68         22.3668
   721.82         22.4586
   721.96         22.5146
   722.10         22.5326
   722.24         22.5127
   722.38         22.4602
   722.52         22.3854
   722.66         22.2999
   722.80         22.2112
   722.94         22.1239
   723.08         22.0416
   723.22         21.9695
   723.36         21.9115
   723.50         21.8679
   723.64         21.8362
   723.78         21.8110
   723.92         21.7856
   724.06         21.7545
   724.20         21.7130
   724.34         21.6578
   724.48         21.5898
   724.62         21.5142
   724.76         21.4380
   724.90         21.3687
   725.04         21.3114
   725.18         21.2678
   725.32         21.2364
   725.46         21.2149
   725.60         21.2033
   725.74         21.2024
   725.88         21.2113
   726.02         21.2273
   726.16         21.2468
   726.30         21.2660
   726.44         21.2785
   726.58         21.2786
   726.72         21.2666
   726.86         21.2483
   727.00         21.2301
   727.14         21.2148
   727.28         21.1993
   727.42         21.1787
   727.56         21.1481
   727.70         21.1022
   727.84         21.0371
   727.98         20.9527
   728.12         20.8530
   728.26         20.7442
   728.40         20.6321
   728.54         20.5243
   728.68         20.4294
   728.82         20.3562
   728.96         20.3119
   729.10         20.3005
   729.24         20.3243
   729.38         20.3832
   729.52         20.4721
   729.66         20.5793
   729.80         20.6886
   729.94         20.7848
   730.08         20.8574
   730.22         20.8981
   730.36         20.9018
   730.50         20.8708
   730.64         20.8150
   730.78         20.7478
   730.92         20.6819
   731.06         20.6285
   731.20         20.5961
   731.34         20.5864
   731.48         20.5948
   731.62         20.6139
   731.76         20.6379
   731.90         20.6636
   732.04         20.6892
   732.18         20.7111
   732.32         20.7262
   732.46         20.7348
   732.60         20.7416
   732.74         20.7523
   732.88         20.7702
   733.02         20.7962
   733.16         20.8300
   733.30         20.8689
   733.44         20.9077
   733.58         20.9398
   733.72         20.9587
   733.86         20.9572
   734.00         20.9289
   734.14         20.8714
   734.28         20.7873
   734.42         20.6810
   734.56         20.5558
   734.70         20.4156
   734.84         20.2678
   734.98         20.1236
   735.12         19.9930
   735.26         19.8830
   735.40         19.7980
   735.54         19.7401
   735.68         19.7101
   735.82         19.7072
   735.96         19.7276
   736.10         19.7666
   736.24         19.8211
   736.38         19.8892
   736.52         19.9687
   736.66         20.0560
   736.80         20.1456
   736.94         20.2316
   737.08         20.3074
   737.22         20.3684
   737.36         20.4121
   737.50         20.4349
   737.64         20.4319
   737.78         20.4004
   737.92         20.3432
   738.06         20.2670
   738.20         20.1797
   738.34         20.0885
   738.48         20.0017
   738.62         19.9292
   738.76         19.8800
   738.90         19.8602
   739.04         19.8703
   739.18         19.9065
   739.32         19.9614
   739.46         20.0264
   739.60         20.0918
   739.74         20.1488
   739.88         20.1913
   740.02         20.2155
   740.16         20.2200
   740.30         20.2073
   740.44         20.1835
   740.58         20.1552
   740.72         20.1271
   740.86         20.1014
   741.00         20.0789
   741.14         20.0609
   741.28         20.0472
   741.42         20.0354
   741.56         20.0227
   741.70         20.0073
   741.84         19.9878
   741.98         19.9628
   742.12         19.9328
   742.26         19.8986
   742.40         19.8626
   742.54         19.8292
   742.68         19.8031
   742.82         19.7887
   742.96         19.7887
   743.10         19.8031
   743.24         19.8292
   743.38         19.8626
   743.52         19.8986
   743.66         19.9328
   743.80         19.9628
   743.94         19.9878
   744.08         20.0073
   744.22         20.0227
