# File HD249826
# Wavelength [nm]    Normalized Amplitude
   349.70         0.4251
   349.84         0.4499
   349.98         0.4969
   350.12         0.5630
   350.26         0.6406
   350.40         0.7200
   350.54         0.7939
   350.68         0.8583
   350.82         0.9108
   350.96         0.9475
   351.10         0.9611
   351.24         0.9475
   351.38         0.9108
   351.52         0.8583
   351.66         0.7939
   351.80         0.7200
   351.94         0.6406
   352.08         0.5630
   352.22         0.4969
   352.36         0.4499
   352.50         0.4251
   352.64         0.4232
   352.78         0.4432
   352.92         0.4817
   353.06         0.5361
   353.20         0.6036
   353.34         0.6797
   353.48         0.7550
   353.62         0.8177
   353.76         0.8621
   353.90         0.8899
   354.04         0.9043
   354.18         0.9085
   354.32         0.9080
   354.46         0.9091
   354.60         0.9163
   354.74         0.9317
   354.88         0.9548
   355.02         0.9835
   355.16         1.0160
   355.30         1.0494
   355.44         1.0780
   355.58         1.0969
   355.72         1.1027
   355.86         1.0910
   356.00         1.0577
   356.14         1.0013
   356.28         0.9253
   356.42         0.8377
   356.56         0.7447
   356.70         0.6505
   356.84         0.5599
   356.98         0.4774
   357.12         0.4057
   357.26         0.3473
   357.40         0.3051
   357.54         0.2814
   357.68         0.2771
   357.82         0.2907
   357.96         0.3182
   358.10         0.3566
   358.24         0.4038
   358.38         0.4547
   358.52         0.5021
   358.66         0.5413
   358.80         0.5695
   358.94         0.5860
   359.08         0.5911
   359.22         0.5860
   359.36         0.5741
   359.50         0.5598
   359.64         0.5472
   359.78         0.5385
   359.92         0.5352
   360.06         0.5397
   360.20         0.5539
   360.34         0.5781
   360.48         0.6115
   360.62         0.6516
   360.76         0.6946
   360.90         0.7363
   361.04         0.7733
   361.18         0.8041
   361.32         0.8289
   361.46         0.8483
   361.60         0.8629
   361.74         0.8750
   361.88         0.8862
   362.02         0.8970
   362.16         0.9076
   362.30         0.9186
   362.44         0.9294
   362.58         0.9399
   362.72         0.9500
   362.86         0.9588
   363.00         0.9642
   363.14         0.9632
   363.28         0.9537
   363.42         0.9355
   363.56         0.9105
   363.70         0.8821
   363.84         0.8525
   363.98         0.8241
   364.12         0.7990
   364.26         0.7789
   364.40         0.7650
   364.54         0.7583
   364.68         0.7612
   364.82         0.7758
   364.96         0.8028
   365.10         0.8409
   365.24         0.8886
   365.38         0.9437
   365.52         1.0038
   365.66         1.0656
   365.80         1.1254
   365.94         1.1794
   366.08         1.2232
   366.22         1.2537
   366.36         1.2693
   366.50         1.2700
   366.64         1.2583
   366.78         1.2376
   366.92         1.2104
   367.06         1.1795
   367.20         1.1479
   367.34         1.1172
   367.48         1.0868
   367.62         1.0561
   367.76         1.0248
   367.90         0.9934
   368.04         0.9639
   368.18         0.9384
   368.32         0.9179
   368.46         0.9028
   368.60         0.8945
   368.74         0.8954
   368.88         0.9080
   369.02         0.9333
   369.16         0.9692
   369.30         1.0101
   369.44         1.0483
   369.58         1.0779
   369.72         1.0962
   369.86         1.1023
   370.00         1.0952
   370.14         1.0753
   370.28         1.0447
   370.42         1.0086
   370.56         0.9724
   370.70         0.9402
   370.84         0.9131
   370.98         0.8905
   371.12         0.8718
   371.26         0.8563
   371.40         0.8419
   371.54         0.8268
   371.68         0.8123
   371.82         0.8003
   371.96         0.7914
   372.10         0.7871
   372.24         0.7907
   372.38         0.8042
   372.52         0.8261
   372.66         0.8545
   372.80         0.8878
   372.94         0.9245
   373.08         0.9626
   373.22         0.9980
   373.36         1.0254
   373.50         1.0416
   373.64         1.0471
   373.78         1.0440
   373.92         1.0339
   374.06         1.0192
   374.20         1.0050
   374.34         0.9954
   374.48         0.9898
   374.62         0.9848
   374.76         0.9795
   374.90         0.9742
   375.04         0.9686
   375.18         0.9631
   375.32         0.9593
   375.46         0.9585
   375.60         0.9616
   375.74         0.9693
   375.88         0.9818
   376.02         1.0002
   376.16         1.0256
   376.30         1.0587
   376.44         1.0985
   376.58         1.1432
   376.72         1.1911
   376.86         1.2395
   377.00         1.2840
   377.14         1.3211
   377.28         1.3499
   377.42         1.3711
   377.56         1.3854
   377.70         1.3932
   377.84         1.3945
   377.98         1.3889
   378.12         1.3766
   378.26         1.3581
   378.40         1.3329
   378.54         1.3002
   378.68         1.2591
   378.82         1.2107
   378.96         1.1590
   379.10         1.1086
   379.24         1.0644
   379.38         1.0298
   379.52         1.0062
   379.66         0.9942
   379.80         0.9942
   379.94         1.0060
   380.08         1.0278
   380.22         1.0572
   380.36         1.0904
   380.50         1.1232
   380.64         1.1524
   380.78         1.1736
   380.92         1.1824
   381.06         1.1771
   381.20         1.1584
   381.34         1.1280
   381.48         1.0880
   381.62         1.0412
   381.76         0.9902
   381.90         0.9381
   382.04         0.8881
   382.18         0.8439
   382.32         0.8093
   382.46         0.7869
   382.60         0.7777
   382.74         0.7807
   382.88         0.7924
   383.02         0.8089
   383.16         0.8277
   383.30         0.8483
   383.44         0.8707
   383.58         0.8959
   383.72         0.9259
   383.86         0.9613
   384.00         1.0010
   384.14         1.0432
   384.28         1.0872
   384.42         1.1315
   384.56         1.1729
   384.70         1.2075
   384.84         1.2313
   384.98         1.2409
   385.12         1.2343
   385.26         1.2106
   385.40         1.1713
   385.54         1.1207
   385.68         1.0659
   385.82         1.0119
   385.96         0.9584
   386.10         0.9049
   386.24         0.8575
   386.38         0.8259
   386.52         0.8160
   386.66         0.8284
   386.80         0.8613
   386.94         0.9109
   387.08         0.9714
   387.22         1.0372
   387.36         1.1032
   387.50         1.1634
   387.64         1.2116
   387.78         1.2433
   387.92         1.2577
   388.06         1.2559
   388.20         1.2402
   388.34         1.2136
   388.48         1.1808
   388.62         1.1485
   388.76         1.1271
   388.90         1.1242
   389.04         1.1382
   389.18         1.1615
   389.32         1.1891
   389.46         1.2188
   389.60         1.2496
   389.74         1.2796
   389.88         1.3067
   390.02         1.3287
   390.16         1.3444
   390.30         1.3540
   390.44         1.3596
   390.58         1.3621
   390.72         1.3619
   390.86         1.3586
   391.00         1.3527
   391.14         1.3435
   391.28         1.3292
   391.42         1.3086
   391.56         1.2816
   391.70         1.2490
   391.84         1.2119
   391.98         1.1712
   392.12         1.1267
   392.26         1.0771
   392.40         1.0217
   392.54         0.9611
   392.68         0.8972
   392.82         0.8326
   392.96         0.7704
   393.10         0.7137
   393.24         0.6648
   393.38         0.6251
   393.52         0.5963
   393.66         0.5801
   393.80         0.5777
   393.94         0.5901
   394.08         0.6180
   394.22         0.6611
   394.36         0.7164
   394.50         0.7788
   394.64         0.8433
   394.78         0.9053
   394.92         0.9611
   395.06         1.0074
   395.20         1.0409
   395.34         1.0595
   395.48         1.0621
   395.62         1.0488
   395.76         1.0210
   395.90         0.9811
   396.04         0.9337
   396.18         0.8853
   396.32         0.8434
   396.46         0.8150
   396.60         0.8053
   396.74         0.8157
   396.88         0.8452
   397.02         0.8922
   397.16         0.9552
   397.30         1.0323
   397.44         1.1204
   397.58         1.2148
   397.72         1.3113
   397.86         1.4064
   398.00         1.4978
   398.14         1.5841
   398.28         1.6646
   398.42         1.7390
   398.56         1.8064
   398.70         1.8662
   398.84         1.9192
   398.98         1.9676
   399.12         2.0132
   399.26         2.0565
   399.40         2.0977
   399.54         2.1378
   399.68         2.1776
   399.82         2.2171
   399.96         2.2552
   400.10         2.2915
   400.24         2.3266
   400.38         2.3621
   400.52         2.3993
   400.66         2.4388
   400.80         2.4806
   400.94         2.5241
   401.08         2.5678
   401.22         2.6104
   401.36         2.6512
   401.50         2.6902
   401.64         2.7268
   401.78         2.7585
   401.92         2.7811
   402.06         2.7895
   402.20         2.7798
   402.34         2.7503
   402.48         2.7028
   402.62         2.6419
   402.76         2.5746
   402.90         2.5087
   403.04         2.4504
   403.18         2.4042
   403.32         2.3730
   403.46         2.3586
   403.60         2.3616
   403.74         2.3819
   403.88         2.4190
   404.02         2.4712
   404.16         2.5351
   404.30         2.6055
   404.44         2.6756
   404.58         2.7387
   404.72         2.7910
   404.86         2.8329
   405.00         2.8672
   405.14         2.8952
   405.28         2.9164
   405.42         2.9287
   405.56         2.9301
   405.70         2.9207
   405.84         2.9026
   405.98         2.8792
   406.12         2.8547
   406.26         2.8334
   406.40         2.8183
   406.54         2.8100
   406.68         2.8071
   406.82         2.8082
   406.96         2.8136
   407.10         2.8244
   407.24         2.8426
   407.38         2.8702
   407.52         2.9082
   407.66         2.9566
   407.80         3.0140
   407.94         3.0792
   408.08         3.1514
   408.22         3.2292
   408.36         3.3091
   408.50         3.3841
   408.64         3.4456
   408.78         3.4853
   408.92         3.4966
   409.06         3.4762
   409.20         3.4255
   409.34         3.3516
   409.48         3.2659
   409.62         3.1814
   409.76         3.1088
   409.90         3.0556
   410.04         3.0261
   410.18         3.0212
   410.32         3.0395
   410.46         3.0768
   410.60         3.1263
   410.74         3.1796
   410.88         3.2284
   411.02         3.2660
   411.16         3.2890
   411.30         3.2990
   411.44         3.3014
   411.58         3.3023
   411.72         3.3073
   411.86         3.3198
   412.00         3.3401
   412.14         3.3650
   412.28         3.3891
   412.42         3.4066
   412.56         3.4133
   412.70         3.4087
   412.84         3.3952
   412.98         3.3757
   413.12         3.3514
   413.26         3.3223
   413.40         3.2900
   413.54         3.2588
   413.68         3.2340
   413.82         3.2195
   413.96         3.2160
   414.10         3.2211
   414.24         3.2313
   414.38         3.2443
   414.52         3.2592
   414.66         3.2767
   414.80         3.2998
   414.94         3.3329
   415.08         3.3801
   415.22         3.4430
   415.36         3.5200
   415.50         3.6054
   415.64         3.6910
   415.78         3.7687
   415.92         3.8325
   416.06         3.8778
   416.20         3.9013
   416.34         3.9001
   416.48         3.8733
   416.62         3.8241
   416.76         3.7601
   416.90         3.6919
   417.04         3.6293
   417.18         3.5809
   417.32         3.5540
   417.46         3.5533
   417.60         3.5794
   417.74         3.6286
   417.88         3.6941
   418.02         3.7675
   418.16         3.8405
   418.30         3.9064
   418.44         3.9601
   418.58         3.9975
   418.72         4.0154
   418.86         4.0129
   419.00         3.9910
   419.14         3.9531
   419.28         3.9037
   419.42         3.8477
   419.56         3.7901
   419.70         3.7368
   419.84         3.6937
   419.98         3.6655
   420.12         3.6544
   420.26         3.6599
   420.40         3.6789
   420.54         3.7071
   420.68         3.7405
   420.82         3.7752
   420.96         3.8067
   421.10         3.8292
   421.24         3.8354
   421.38         3.8178
   421.52         3.7694
   421.66         3.6864
   421.80         3.5693
   421.94         3.4234
   422.08         3.2591
   422.22         3.0899
   422.36         2.9303
   422.50         2.7939
   422.64         2.6919
   422.78         2.6329
   422.92         2.6223
   423.06         2.6632
   423.20         2.7564
   423.34         2.8993
   423.48         3.0840
   423.62         3.2974
   423.76         3.5236
   423.90         3.7456
   424.04         3.9469
   424.18         4.1138
   424.32         4.2369
   424.46         4.3130
   424.60         4.3443
   424.74         4.3357
   424.88         4.2932
   425.02         4.2247
   425.16         4.1405
   425.30         4.0542
   425.44         3.9806
   425.58         3.9326
   425.72         3.9181
   425.86         3.9378
   426.00         3.9843
   426.14         4.0446
   426.28         4.1041
   426.42         4.1491
   426.56         4.1701
   426.70         4.1640
   426.84         4.1346
   426.98         4.0902
   427.12         4.0406
   427.26         3.9947
   427.40         3.9596
   427.54         3.9403
   427.68         3.9387
   427.82         3.9528
   427.96         3.9769
   428.10         4.0029
   428.24         4.0238
   428.38         4.0348
   428.52         4.0345
   428.66         4.0254
   428.80         4.0116
   428.94         3.9980
   429.08         3.9893
   429.22         3.9903
   429.36         4.0029
   429.50         4.0243
   429.64         4.0475
   429.78         4.0661
   429.92         4.0774
   430.06         4.0829
   430.20         4.0866
   430.34         4.0937
   430.48         4.1124
   430.62         4.1541
   430.76         4.2305
   430.90         4.3482
   431.04         4.5058
   431.18         4.6949
   431.32         4.9012
   431.46         5.1077
   431.60         5.2995
   431.74         5.4676
   431.88         5.6070
   432.02         5.7149
   432.16         5.7924
   432.30         5.8460
   432.44         5.8856
   432.58         5.9201
   432.72         5.9542
   432.86         5.9871
   433.00         6.0164
   433.14         6.0408
   433.28         6.0601
   433.42         6.0738
   433.56         6.0815
   433.70         6.0844
   433.84         6.0847
   433.98         6.0842
   434.12         6.0844
   434.26         6.0885
   434.40         6.1000
   434.54         6.1226
   434.68         6.1590
   434.82         6.2096
   434.96         6.2713
   435.10         6.3391
   435.24         6.4090
   435.38         6.4795
   435.52         6.5518
   435.66         6.6275
   435.80         6.7073
   435.94         6.7905
   436.08         6.8741
   436.22         6.9519
   436.36         7.0149
   436.50         7.0544
   436.64         7.0663
   436.78         7.0518
   436.92         7.0155
   437.06         6.9616
   437.20         6.8913
   437.34         6.8029
   437.48         6.6961
   437.62         6.5755
   437.76         6.4492
   437.90         6.3256
   438.04         6.2115
   438.18         6.1117
   438.32         6.0309
   438.46         5.9748
   438.60         5.9496
   438.74         5.9598
   438.88         6.0064
   439.02         6.0868
   439.16         6.1944
   439.30         6.3171
   439.44         6.4367
   439.58         6.5331
   439.72         6.5919
   439.86         6.6088
   440.00         6.5897
   440.14         6.5467
   440.28         6.4922
   440.42         6.4364
   440.56         6.3886
   440.70         6.3589
   440.84         6.3569
   440.98         6.3891
   441.12         6.4564
   441.26         6.5537
   441.40         6.6711
   441.54         6.7951
   441.68         6.9115
   441.82         7.0082
   441.96         7.0776
   442.10         7.1186
   442.24         7.1358
   442.38         7.1365
   442.52         7.1272
   442.66         7.1138
   442.80         7.1018
   442.94         7.0953
   443.08         7.0963
   443.22         7.1072
   443.36         7.1322
   443.50         7.1758
   443.64         7.2399
   443.78         7.3238
   443.92         7.4256
   444.06         7.5408
   444.20         7.6614
   444.34         7.7770
   444.48         7.8769
   444.62         7.9511
   444.76         7.9913
   444.90         7.9913
   445.04         7.9488
   445.18         7.8681
   445.32         7.7588
   445.46         7.6316
   445.60         7.4965
   445.74         7.3645
   445.88         7.2492
   446.02         7.1628
   446.16         7.1132
   446.30         7.1026
   446.44         7.1315
   446.58         7.1998
   446.72         7.3037
   446.86         7.4343
   447.00         7.5804
   447.14         7.7331
   447.28         7.8866
   447.42         8.0379
   447.56         8.1854
   447.70         8.3271
   447.84         8.4601
   447.98         8.5803
   448.12         8.6831
   448.26         8.7644
   448.40         8.8200
   448.54         8.8475
   448.68         8.8491
   448.82         8.8310
   448.96         8.8017
   449.10         8.7719
   449.24         8.7528
   449.38         8.7531
   449.52         8.7773
   449.66         8.8280
   449.80         8.9073
   449.94         9.0128
   450.08         9.1365
   450.22         9.2661
   450.36         9.3887
   450.50         9.4938
   450.64         9.5739
   450.78         9.6254
   450.92         9.6487
   451.06         9.6476
   451.20         9.6285
   451.34         9.5975
   451.48         9.5576
   451.62         9.5076
   451.76         9.4451
   451.90         9.3666
   452.04         9.2669
   452.18         9.1418
   452.32         8.9917
   452.46         8.8240
   452.60         8.6524
   452.74         8.4938
   452.88         8.3636
   453.02         8.2737
   453.16         8.2318
   453.30         8.2418
   453.44         8.3030
   453.58         8.4081
   453.72         8.5435
   453.86         8.6929
   454.00         8.8404
   454.14         8.9715
   454.28         9.0748
   454.42         9.1454
   454.56         9.1872
   454.70         9.2109
   454.84         9.2294
   454.98         9.2557
   455.12         9.3009
   455.26         9.3709
   455.40         9.4661
   455.54         9.5845
   455.68         9.7246
   455.82         9.8838
   455.96         10.0546
   456.10         10.2264
   456.24         10.3893
   456.38         10.5364
   456.52         10.6635
   456.66         10.7679
   456.80         10.8474
   456.94         10.9032
   457.08         10.9406
   457.22         10.9637
   457.36         10.9707
   457.50         10.9557
   457.64         10.9143
   457.78         10.8459
   457.92         10.7542
   458.06         10.6440
   458.20         10.5199
   458.34         10.3857
   458.48         10.2442
   458.62         10.0997
   458.76         9.9596
   458.90         9.8324
   459.04         9.7251
   459.18         9.6419
   459.32         9.5848
   459.46         9.5549
   459.60         9.5555
   459.74         9.5907
   459.88         9.6627
   460.02         9.7713
   460.16         9.9150
   460.30         10.0906
   460.44         10.2929
   460.58         10.5145
   460.72         10.7473
   460.86         10.9843
   461.00         11.2186
   461.14         11.4409
   461.28         11.6404
   461.42         11.8050
   461.56         11.9228
   461.70         11.9840
   461.84         11.9837
   461.98         11.9239
   462.12         11.8119
   462.26         11.6575
   462.40         11.4705
   462.54         11.2587
   462.68         11.0281
   462.82         10.7854
   462.96         10.5394
   463.10         10.2998
   463.24         10.0756
   463.38         9.8740
   463.52         9.6990
   463.66         9.5509
   463.80         9.4295
   463.94         9.3355
   464.08         9.2714
   464.22         9.2395
   464.36         9.2412
   464.50         9.2780
   464.64         9.3505
   464.78         9.4587
   464.92         9.6026
   465.06         9.7800
   465.20         9.9841
   465.34         10.2044
   465.48         10.4276
   465.62         10.6375
   465.76         10.8170
   465.90         10.9509
   466.04         11.0290
   466.18         11.0475
   466.32         11.0097
   466.46         10.9253
   466.60         10.8082
   466.74         10.6730
   466.88         10.5329
   467.02         10.4004
   467.16         10.2889
   467.30         10.2103
   467.44         10.1716
   467.58         10.1719
   467.72         10.2031
   467.86         10.2556
   468.00         10.3220
   468.14         10.3975
   468.28         10.4805
   468.42         10.5734
   468.56         10.6816
   468.70         10.8078
   468.84         10.9487
   468.98         11.0994
   469.12         11.2553
   469.26         11.4113
   469.40         11.5606
   469.54         11.6956
   469.68         11.8100
   469.82         11.9003
   469.96         11.9649
   470.10         12.0036
   470.24         12.0172
   470.38         12.0075
   470.52         11.9783
   470.66         11.9359
   470.80         11.8867
   470.94         11.8371
   471.08         11.7929
   471.22         11.7574
   471.36         11.7321
   471.50         11.7198
   471.64         11.7225
   471.78         11.7363
   471.92         11.7535
   472.06         11.7677
   472.20         11.7761
   472.34         11.7797
   472.48         11.7826
   472.62         11.7903
   472.76         11.8077
   472.90         11.8386
   473.04         11.8849
   473.18         11.9467
   473.32         12.0233
   473.46         12.1127
   473.60         12.2117
   473.74         12.3177
   473.88         12.4289
   474.02         12.5428
   474.16         12.6550
   474.30         12.7610
   474.44         12.8585
   474.58         12.9473
   474.72         13.0258
   474.86         13.0873
   475.00         13.1194
   475.14         13.1062
   475.28         13.0317
   475.42         12.8836
   475.56         12.6555
   475.70         12.3484
   475.84         11.9723
   475.98         11.5461
   476.12         11.0943
   476.26         10.6443
   476.40         10.2230
   476.54         9.8546
   476.68         9.5570
   476.82         9.3418
   476.96         9.2120
   477.10         9.1598
   477.24         9.1685
   477.38         9.2174
   477.52         9.2869
   477.66         9.3607
   477.80         9.4282
   477.94         9.4860
   478.08         9.5370
   478.22         9.5895
   478.36         9.6533
   478.50         9.7382
   478.64         9.8512
   478.78         9.9945
   478.92         10.1663
   479.06         10.3618
   479.20         10.5717
   479.34         10.7808
   479.48         10.9687
   479.62         11.1142
   479.76         11.2006
   479.90         11.2200
   480.04         11.1736
   480.18         11.0695
   480.32         10.9202
   480.46         10.7416
   480.60         10.5533
   480.74         10.3758
   480.88         10.2259
   481.02         10.1143
   481.16         10.0463
   481.30         10.0231
   481.44         10.0438
   481.58         10.1041
   481.72         10.1949
   481.86         10.3028
   482.00         10.4141
   482.14         10.5204
   482.28         10.6197
   482.42         10.7147
   482.56         10.8090
   482.70         10.9042
   482.84         11.0000
   482.98         11.0947
   483.12         11.1870
   483.26         11.2761
   483.40         11.3597
   483.54         11.4335
   483.68         11.4915
   483.82         11.5275
   483.96         11.5379
   484.10         11.5211
   484.24         11.4756
   484.38         11.4026
   484.52         11.3086
   484.66         11.2046
   484.80         11.1003
   484.94         11.0005
   485.08         10.9078
   485.22         10.8252
   485.36         10.7558
   485.50         10.7035
   485.64         10.6731
   485.78         10.6698
   485.92         10.6963
   486.06         10.7502
   486.20         10.8256
   486.34         10.9150
   486.48         11.0136
   486.62         11.1192
   486.76         11.2301
   486.90         11.3437
   487.04         11.4564
   487.18         11.5649
   487.32         11.6650
   487.46         11.7526
   487.60         11.8263
   487.74         11.8892
   487.88         11.9445
   488.02         11.9934
   488.16         12.0380
   488.30         12.0828
   488.44         12.1337
   488.58         12.1963
   488.72         12.2752
   488.86         12.3745
   489.00         12.4967
   489.14         12.6424
   489.28         12.8089
   489.42         12.9931
   489.56         13.1919
   489.70         13.3985
   489.84         13.6032
   489.98         13.7957
   490.12         13.9668
   490.26         14.1098
   490.40         14.2244
   490.54         14.3159
   490.68         14.3911
   490.82         14.4542
   490.96         14.5058
   491.10         14.5439
   491.24         14.5675
   491.38         14.5779
   491.52         14.5793
   491.66         14.5809
   491.80         14.5944
   491.94         14.6313
   492.08         14.7003
   492.22         14.8017
   492.36         14.9272
   492.50         15.0664
   492.64         15.2095
   492.78         15.3457
   492.92         15.4652
   493.06         15.5609
   493.20         15.6268
   493.34         15.6583
   493.48         15.6579
   493.62         15.6381
   493.76         15.6192
   493.90         15.6225
   494.04         15.6653
   494.18         15.7557
   494.32         15.8869
   494.46         16.0315
   494.60         16.1448
   494.74         16.1766
   494.88         16.0844
   495.02         15.8407
   495.16         15.4359
   495.30         14.8780
   495.44         14.1927
   495.58         13.4186
   495.72         12.6016
   495.86         11.7919
   496.00         11.0406
   496.14         10.3936
   496.28         9.8854
   496.42         9.5364
   496.56         9.3515
   496.70         9.3173
   496.84         9.4035
   496.98         9.5690
   497.12         9.7717
   497.26         9.9781
   497.40         10.1693
   497.54         10.3379
   497.68         10.4816
   497.82         10.6003
   497.96         10.6966
   498.10         10.7751
   498.24         10.8420
   498.38         10.9054
   498.52         10.9743
   498.66         11.0544
   498.80         11.1439
   498.94         11.2356
   499.08         11.3207
   499.22         11.3880
   499.36         11.4240
   499.50         11.4174
   499.64         11.3630
   499.78         11.2624
   499.92         11.1245
   500.06         10.9622
   500.20         10.7873
   500.34         10.6074
   500.48         10.4295
   500.62         10.2628
   500.76         10.1181
   500.90         10.0047
   501.04         9.9280
   501.18         9.8882
   501.32         9.8813
   501.46         9.9028
   501.60         9.9497
   501.74         10.0209
   501.88         10.1138
   502.02         10.2275
   502.16         10.3637
   502.30         10.5251
   502.44         10.7106
   502.58         10.9128
   502.72         11.1195
   502.86         11.3167
   503.00         11.4922
   503.14         11.6398
   503.28         11.7603
   503.42         11.8588
   503.56         11.9432
   503.70         12.0224
   503.84         12.1029
   503.98         12.1892
   504.12         12.2838
   504.26         12.3858
   504.40         12.4919
   504.54         12.5987
   504.68         12.7050
   504.82         12.8117
   504.96         12.9197
   505.10         13.0286
   505.24         13.1369
   505.38         13.2438
   505.52         13.3490
   505.66         13.4534
   505.80         13.5593
   505.94         13.6665
   506.08         13.7704
   506.22         13.8635
   506.36         13.9372
   506.50         13.9835
   506.64         13.9994
   506.78         13.9867
   506.92         13.9486
   507.06         13.8886
   507.20         13.8110
   507.34         13.7214
   507.48         13.6264
   507.62         13.5329
   507.76         13.4469
   507.90         13.3755
   508.04         13.3265
   508.18         13.3085
   508.32         13.3281
   508.46         13.3884
   508.60         13.4869
   508.74         13.6166
   508.88         13.7663
   509.02         13.9214
   509.16         14.0670
   509.30         14.1907
   509.44         14.2828
   509.58         14.3352
   509.72         14.3448
   509.86         14.3157
   510.00         14.2564
   510.14         14.1781
   510.28         14.0913
   510.42         14.0057
   510.56         13.9327
   510.70         13.8844
   510.84         13.8699
   510.98         13.8914
   511.12         13.9445
   511.26         14.0206
   511.40         14.1092
   511.54         14.1991
   511.68         14.2782
   511.82         14.3349
   511.96         14.3608
   512.10         14.3540
   512.24         14.3196
   512.38         14.2697
   512.52         14.2203
   512.66         14.1867
   512.80         14.1805
   512.94         14.2093
   513.08         14.2775
   513.22         14.3822
   513.36         14.5090
   513.50         14.6360
   513.64         14.7411
   513.78         14.8090
   513.92         14.8318
   514.06         14.8056
   514.20         14.7304
   514.34         14.6135
   514.48         14.4736
   514.62         14.3356
   514.76         14.2224
   514.90         14.1496
   515.04         14.1270
   515.18         14.1584
   515.32         14.2373
   515.46         14.3429
   515.60         14.4414
   515.74         14.4901
   515.88         14.4458
   516.02         14.2742
   516.16         13.9567
   516.30         13.4931
   516.44         12.9004
   516.58         12.2096
   516.72         11.4626
   516.86         10.7095
   517.00         10.0025
   517.14         9.3872
   517.28         8.8956
   517.42         8.5462
   517.56         8.3470
   517.70         8.2955
   517.84         8.3737
   517.98         8.5483
   518.12         8.7784
   518.26         9.0279
   518.40         9.2739
   518.54         9.5083
   518.68         9.7322
   518.82         9.9500
   518.96         10.1661
   519.10         10.3806
   519.24         10.5863
   519.38         10.7695
   519.52         10.9137
   519.66         11.0043
   519.80         11.0335
   519.94         11.0036
   520.08         10.9282
   520.22         10.8286
   520.36         10.7273
   520.50         10.6455
   520.64         10.6049
   520.78         10.6266
   520.92         10.7288
   521.06         10.9218
   521.20         11.2019
   521.34         11.5479
   521.48         11.9267
   521.62         12.3029
   521.76         12.6475
   521.90         12.9431
   522.04         13.1847
   522.18         13.3777
   522.32         13.5344
   522.46         13.6721
   522.60         13.8109
   522.74         13.9670
   522.88         14.1460
   523.02         14.3433
   523.16         14.5500
   523.30         14.7533
   523.44         14.9357
   523.58         15.0755
   523.72         15.1518
   523.86         15.1489
   524.00         15.0613
   524.14         14.8984
   524.28         14.6835
   524.42         14.4464
   524.56         14.2181
   524.70         14.0273
   524.84         13.8969
   524.98         13.8392
   525.12         13.8554
   525.26         13.9331
   525.40         14.0489
   525.54         14.1747
   525.68         14.2842
   525.82         14.3532
   525.96         14.3622
   526.10         14.3029
   526.24         14.1836
   526.38         14.0273
   526.52         13.8664
   526.66         13.7370
   526.80         13.6738
   526.94         13.7008
   527.08         13.8277
   527.22         14.0513
   527.36         14.3577
   527.50         14.7234
   527.64         15.1186
   527.78         15.5148
   527.92         15.8896
   528.06         16.2283
   528.20         16.5223
   528.34         16.7669
   528.48         16.9579
   528.62         17.0933
   528.76         17.1752
   528.90         17.2081
   529.04         17.1990
   529.18         17.1593
   529.32         17.1048
   529.46         17.0515
   529.60         17.0124
   529.74         16.9979
   529.88         17.0165
   530.02         17.0730
   530.16         17.1647
   530.30         17.2828
   530.44         17.4172
   530.58         17.5561
   530.72         17.6847
   530.86         17.7877
   531.00         17.8529
   531.14         17.8742
   531.28         17.8535
   531.42         17.7996
   531.56         17.7208
   531.70         17.6192
   531.84         17.4938
   531.98         17.3460
   532.12         17.1802
   532.26         17.0045
   532.40         16.8327
   532.54         16.6813
   532.68         16.5646
   532.82         16.4910
   532.96         16.4646
   533.10         16.4854
   533.24         16.5494
   533.38         16.6490
   533.52         16.7741
   533.66         16.9130
   533.80         17.0526
   533.94         17.1820
   534.08         17.2959
   534.22         17.3979
   534.36         17.5006
   534.50         17.6224
   534.64         17.7785
   534.78         17.9740
   534.92         18.2039
   535.06         18.4555
   535.20         18.7102
   535.34         18.9465
   535.48         19.1445
   535.62         19.2898
   535.76         19.3729
   535.90         19.3854
   536.04         19.3216
   536.18         19.1851
   536.32         18.9927
   536.46         18.7716
   536.60         18.5548
   536.74         18.3737
   536.88         18.2515
   537.02         18.1994
   537.16         18.2176
   537.30         18.2980
   537.44         18.4280
   537.58         18.5925
   537.72         18.7722
   537.86         18.9428
   538.00         19.0796
   538.14         19.1641
   538.28         19.1854
   538.42         19.1365
   538.56         19.0151
   538.70         18.8311
   538.84         18.6088
   538.98         18.3782
   539.12         18.1658
   539.26         17.9887
   539.40         17.8526
   539.54         17.7546
   539.68         17.6880
   539.82         17.6439
   539.96         17.6135
   540.10         17.5939
   540.24         17.5883
   540.38         17.6010
   540.52         17.6387
   540.66         17.7117
   540.80         17.8299
   540.94         17.9977
   541.08         18.2132
   541.22         18.4707
   541.36         18.7633
   541.50         19.0801
   541.64         19.4018
   541.78         19.7005
   541.92         19.9447
   542.06         20.1092
   542.20         20.1801
   542.34         20.1545
   542.48         20.0398
   542.62         19.8552
   542.76         19.6318
   542.90         19.4057
   543.04         19.2103
   543.18         19.0727
   543.32         19.0081
   543.46         19.0132
   543.60         19.0665
   543.74         19.1331
   543.88         19.1738
   544.02         19.1527
   544.16         19.0390
   544.30         18.8067
   544.44         18.4389
   544.58         17.9364
   544.72         17.3209
   544.86         16.6295
   545.00         15.9091
   545.14         15.2119
   545.28         14.5890
   545.42         14.0820
   545.56         13.7151
   545.70         13.4931
   545.84         13.4035
   545.98         13.4213
   546.12         13.5146
   546.26         13.6525
   546.40         13.8092
   546.54         13.9655
   546.68         14.1079
   546.82         14.2278
   546.96         14.3220
   547.10         14.3935
   547.24         14.4524
   547.38         14.5115
   547.52         14.5815
   547.66         14.6692
   547.80         14.7786
   547.94         14.9109
   548.08         15.0640
   548.22         15.2327
   548.36         15.4088
   548.50         15.5822
   548.64         15.7414
   548.78         15.8747
   548.92         15.9727
   549.06         16.0306
   549.20         16.0485
   549.34         16.0306
   549.48         15.9829
   549.62         15.9114
   549.76         15.8238
   549.90         15.7307
   550.04         15.6407
   550.18         15.5572
   550.32         15.4809
   550.46         15.4129
   550.60         15.3565
   550.74         15.3185
   550.88         15.3090
   551.02         15.3378
   551.16         15.4097
   551.30         15.5242
   551.44         15.6770
   551.58         15.8614
   551.72         16.0673
   551.86         16.2838
   552.00         16.5010
   552.14         16.7101
   552.28         16.9011
   552.42         17.0646
   552.56         17.1931
   552.70         17.2814
   552.84         17.3295
   552.98         17.3457
   553.12         17.3459
   553.26         17.3478
   553.40         17.3662
   553.54         17.4092
   553.68         17.4779
   553.82         17.5703
   553.96         17.6833
   554.10         17.8127
   554.24         17.9526
   554.38         18.0953
   554.52         18.2321
   554.66         18.3513
   554.80         18.4386
   554.94         18.4816
   555.08         18.4745
   555.22         18.4196
   555.36         18.3249
   555.50         18.2025
   555.64         18.0653
   555.78         17.9239
   555.92         17.7874
   556.06         17.6652
   556.20         17.5663
   556.34         17.4967
   556.48         17.4572
   556.62         17.4454
   556.76         17.4568
   556.90         17.4861
   557.04         17.5269
   557.18         17.5718
   557.32         17.6138
   557.46         17.6465
   557.60         17.6634
   557.74         17.6593
   557.88         17.6317
   558.02         17.5819
   558.16         17.5124
   558.30         17.4278
   558.44         17.3361
   558.58         17.2470
   558.72         17.1646
   558.86         17.0851
   559.00         17.0002
   559.14         16.9039
   559.28         16.7933
   559.42         16.6669
   559.56         16.5246
   559.70         16.3685
   559.84         16.2032
   559.98         16.0348
   560.12         15.8721
   560.26         15.7266
   560.40         15.6087
   560.54         15.5246
   560.68         15.4748
   560.82         15.4552
   560.96         15.4587
   561.10         15.4753
   561.24         15.4922
   561.38         15.4964
   561.52         15.4807
   561.66         15.4453
   561.80         15.3952
   561.94         15.3349
   562.08         15.2676
   562.22         15.1983
   562.36         15.1337
   562.50         15.0797
   562.64         15.0410
   562.78         15.0194
   562.92         15.0120
   563.06         15.0133
   563.20         15.0179
   563.34         15.0233
   563.48         15.0293
   563.62         15.0369
   563.76         15.0480
   563.90         15.0652
   564.04         15.0929
   564.18         15.1376
   564.32         15.2054
   564.46         15.2998
   564.60         15.4209
   564.74         15.5656
   564.88         15.7272
   565.02         15.8955
   565.16         16.0577
   565.30         16.1987
   565.44         16.3041
   565.58         16.3650
   565.72         16.3791
   565.86         16.3484
   566.00         16.2776
   566.14         16.1748
   566.28         16.0525
   566.42         15.9259
   566.56         15.8123
   566.70         15.7297
   566.84         15.6919
   566.98         15.7058
   567.12         15.7725
   567.26         15.8887
   567.40         16.0477
   567.54         16.2408
   567.68         16.4566
   567.82         16.6803
   567.96         16.8973
   568.10         17.0978
   568.24         17.2771
   568.38         17.4317
   568.52         17.5584
   568.66         17.6564
   568.80         17.7290
   568.94         17.7803
   569.08         17.8119
   569.22         17.8228
   569.36         17.8131
   569.50         17.7852
   569.64         17.7431
   569.78         17.6909
   569.92         17.6324
   570.06         17.5723
   570.20         17.5146
   570.34         17.4636
   570.48         17.4254
   570.62         17.4082
   570.76         17.4168
   570.90         17.4502
   571.04         17.5034
   571.18         17.5712
   571.32         17.6498
   571.46         17.7338
   571.60         17.8162
   571.74         17.8894
   571.88         17.9491
   572.02         17.9963
   572.16         18.0342
   572.30         18.0660
   572.44         18.0944
   572.58         18.1230
   572.72         18.1558
   572.86         18.1961
   573.00         18.2458
   573.14         18.3051
   573.28         18.3730
   573.42         18.4483
   573.56         18.5304
   573.70         18.6191
   573.84         18.7141
   573.98         18.8151
   574.12         18.9220
   574.26         19.0338
   574.40         19.1515
   574.54         19.2780
   574.68         19.4147
   574.82         19.5582
   574.96         19.6969
   575.10         19.8129
   575.24         19.8875
   575.38         19.9071
   575.52         19.8664
   575.66         19.7665
   575.80         19.6160
   575.94         19.4294
   576.08         19.2239
   576.22         19.0171
   576.36         18.8256
   576.50         18.6638
   576.64         18.5409
   576.78         18.4592
   576.92         18.4142
   577.06         18.3956
   577.20         18.3900
   577.34         18.3831
   577.48         18.3633
   577.62         18.3241
   577.76         18.2671
   577.90         18.2012
   578.04         18.1403
   578.18         18.1004
   578.32         18.0966
   578.46         18.1413
   578.60         18.2419
   578.74         18.3990
   578.88         18.6084
   579.02         18.8633
   579.16         19.1555
   579.30         19.4751
   579.44         19.8080
   579.58         20.1379
   579.72         20.4507
   579.86         20.7347
   580.00         20.9784
   580.14         21.1704
   580.28         21.2989
   580.42         21.3531
   580.56         21.3254
   580.70         21.2163
   580.84         21.0352
   580.98         20.7970
   581.12         20.5189
   581.26         20.2190
   581.40         19.9161
   581.54         19.6302
   581.68         19.3801
   581.82         19.1816
   581.96         19.0450
   582.10         18.9736
   582.24         18.9645
   582.38         19.0107
   582.52         19.1018
   582.66         19.2246
   582.80         19.3647
   582.94         19.5084
   583.08         19.6464
   583.22         19.7737
   583.36         19.8872
   583.50         19.9811
   583.64         20.0447
   583.78         20.0636
   583.92         20.0242
   584.06         19.9184
   584.20         19.7446
   584.34         19.5061
   584.48         19.2101
   584.62         18.8664
   584.76         18.4880
   584.90         18.0922
   585.04         17.6987
   585.18         17.3249
   585.32         16.9829
   585.46         16.6813
   585.60         16.4273
   585.74         16.2267
   585.88         16.0811
   586.02         15.9844
   586.16         15.9241
   586.30         15.8859
   586.44         15.8569
   586.58         15.8258
   586.72         15.7839
   586.86         15.7254
   587.00         15.6475
   587.14         15.5527
   587.28         15.4474
   587.42         15.3379
   587.56         15.2270
   587.70         15.1100
   587.84         14.9765
   587.98         14.8201
   588.12         14.6430
   588.26         14.4513
   588.40         14.2477
   588.54         14.0324
   588.68         13.8079
   588.82         13.5818
   588.96         13.3652
   589.10         13.1697
   589.24         13.0068
   589.38         12.8870
   589.52         12.8176
   589.66         12.8009
   589.80         12.8330
   589.94         12.9031
   590.08         12.9945
   590.22         13.0887
   590.36         13.1705
   590.50         13.2341
   590.64         13.2828
   590.78         13.3209
   590.92         13.3481
   591.06         13.3639
   591.20         13.3712
   591.34         13.3751
   591.48         13.3783
   591.62         13.3825
   591.76         13.3900
   591.90         13.4036
   592.04         13.4265
   592.18         13.4612
   592.32         13.5093
   592.46         13.5727
   592.60         13.6532
   592.74         13.7516
   592.88         13.8667
   593.02         13.9959
   593.16         14.1354
   593.30         14.2812
   593.44         14.4284
   593.58         14.5717
   593.72         14.7040
   593.86         14.8169
   594.00         14.9043
   594.14         14.9632
   594.28         14.9915
   594.42         14.9866
   594.56         14.9475
   594.70         14.8774
   594.84         14.7844
   594.98         14.6814
   595.12         14.5831
   595.26         14.5017
   595.40         14.4448
   595.54         14.4184
   595.68         14.4295
   595.82         14.4830
   595.96         14.5773
   596.10         14.7032
   596.24         14.8464
   596.38         14.9928
   596.52         15.1307
   596.66         15.2500
   596.80         15.3432
   596.94         15.4058
   597.08         15.4375
   597.22         15.4428
   597.36         15.4305
   597.50         15.4126
   597.64         15.4021
   597.78         15.4098
   597.92         15.4441
   598.06         15.5136
   598.20         15.6267
   598.34         15.7875
   598.48         15.9926
   598.62         16.2315
   598.76         16.4889
   598.90         16.7483
   599.04         16.9937
   599.18         17.2102
   599.32         17.3864
   599.46         17.5156
   599.60         17.5948
   599.74         17.6254
   599.88         17.6152
   600.02         17.5773
   600.16         17.5256
   600.30         17.4705
   600.44         17.4193
   600.58         17.3784
   600.72         17.3551
   600.86         17.3549
   601.00         17.3796
   601.14         17.4281
   601.28         17.4988
   601.42         17.5908
   601.56         17.7033
   601.70         17.8350
   601.84         17.9829
   601.98         18.1418
   602.12         18.3069
   602.26         18.4758
   602.40         18.6464
   602.54         18.8126
   602.68         18.9653
   602.82         19.0967
   602.96         19.2035
   603.10         19.2889
   603.24         19.3621
   603.38         19.4340
   603.52         19.5133
   603.66         19.6048
   603.80         19.7131
   603.94         19.8419
   604.08         19.9906
   604.22         20.1544
   604.36         20.3255
   604.50         20.4945
   604.64         20.6513
   604.78         20.7874
   604.92         20.8948
   605.06         20.9657
   605.20         20.9946
   605.34         20.9838
   605.48         20.9442
   605.62         20.8926
   605.76         20.8475
   605.90         20.8235
   606.04         20.8296
   606.18         20.8700
   606.32         20.9459
   606.46         21.0547
   606.60         21.1877
   606.74         21.3295
   606.88         21.4632
   607.02         21.5752
   607.16         21.6560
   607.30         21.7020
   607.44         21.7150
   607.58         21.6995
   607.72         21.6613
   607.86         21.6082
   608.00         21.5524
   608.14         21.5087
   608.28         21.4892
   608.42         21.4984
   608.56         21.5348
   608.70         21.5941
   608.84         21.6707
   608.98         21.7550
   609.12         21.8344
   609.26         21.8980
   609.40         21.9401
   609.54         21.9608
   609.68         21.9629
   609.82         21.9516
   609.96         21.9341
   610.10         21.9196
   610.24         21.9157
   610.38         21.9277
   610.52         21.9594
   610.66         22.0113
   610.80         22.0786
   610.94         22.1507
   611.08         22.2165
   611.22         22.2705
   611.36         22.3121
   611.50         22.3412
   611.64         22.3581
   611.78         22.3676
   611.92         22.3783
   612.06         22.3973
   612.20         22.4256
   612.34         22.4572
   612.48         22.4824
   612.62         22.4933
   612.76         22.4884
   612.90         22.4703
   613.04         22.4445
   613.18         22.4199
   613.32         22.4076
   613.46         22.4180
   613.60         22.4570
   613.74         22.5227
   613.88         22.6058
   614.02         22.6917
   614.16         22.7635
   614.30         22.8040
   614.44         22.7966
   614.58         22.7231
   614.72         22.5602
   614.86         22.2845
   615.00         21.8811
   615.14         21.3500
   615.28         20.7066
   615.42         19.9758
   615.56         19.1864
   615.70         18.3689
   615.84         17.5549
   615.98         16.7751
   616.12         16.0576
   616.26         15.4251
   616.40         14.8937
   616.54         14.4763
   616.68         14.1797
   616.82         14.0000
   616.96         13.9223
   617.10         13.9235
   617.24         13.9739
   617.38         14.0424
   617.52         14.1031
   617.66         14.1378
   617.80         14.1342
   617.94         14.0858
   618.08         13.9904
   618.22         13.8503
   618.36         13.6715
   618.50         13.4642
   618.64         13.2432
   618.78         13.0245
   618.92         12.8228
   619.06         12.6524
   619.20         12.5276
   619.34         12.4601
   619.48         12.4554
   619.62         12.5116
   619.76         12.6197
   619.90         12.7642
   620.04         12.9263
   620.18         13.0870
   620.32         13.2281
   620.46         13.3333
   620.60         13.3914
   620.74         13.3974
   620.88         13.3531
   621.02         13.2633
   621.16         13.1332
   621.30         12.9677
   621.44         12.7735
   621.58         12.5602
   621.72         12.3409
   621.86         12.1283
   622.00         11.9320
   622.14         11.7590
   622.28         11.6141
   622.42         11.5006
   622.56         11.4201
   622.70         11.3735
   622.84         11.3583
   622.98         11.3684
   623.12         11.3977
   623.26         11.4420
   623.40         11.4978
   623.54         11.5629
   623.68         11.6353
   623.82         11.7139
   623.96         11.7993
   624.10         11.8935
   624.24         11.9984
   624.38         12.1144
   624.52         12.2403
   624.66         12.3732
   624.80         12.5105
   624.94         12.6502
   625.08         12.7899
   625.22         12.9261
   625.36         13.0546
   625.50         13.1729
   625.64         13.2816
   625.78         13.3831
   625.92         13.4809
   626.06         13.5795
   626.20         13.6824
   626.34         13.7895
   626.48         13.8962
   626.62         13.9961
   626.76         14.0836
   626.90         14.1550
   627.04         14.2085
   627.18         14.2429
   627.32         14.2592
   627.46         14.2638
   627.60         14.2695
   627.74         14.2921
   627.88         14.3467
   628.02         14.4443
   628.16         14.5888
   628.30         14.7770
   628.44         15.0004
   628.58         15.2487
   628.72         15.5111
   628.86         15.7769
   629.00         16.0357
   629.14         16.2792
   629.28         16.5014
   629.42         16.6987
   629.56         16.8716
   629.70         17.0256
   629.84         17.1710
   629.98         17.3191
   630.12         17.4806
   630.26         17.6613
   630.40         17.8597
   630.54         18.0679
   630.68         18.2750
   630.82         18.4710
   630.96         18.6493
   631.10         18.8074
   631.24         18.9462
   631.38         19.0696
   631.52         19.1819
   631.66         19.2879
   631.80         19.3923
   631.94         19.5005
   632.08         19.6212
   632.22         19.7644
   632.36         19.9350
   632.50         20.1297
   632.64         20.3409
   632.78         20.5622
   632.92         20.7883
   633.06         21.0143
   633.20         21.2344
   633.34         21.4388
   633.48         21.6168
   633.62         21.7617
   633.76         21.8718
   633.90         21.9469
   634.04         21.9861
   634.18         21.9896
   634.32         21.9579
   634.46         21.8927
   634.60         21.7965
   634.74         21.6710
   634.88         21.5165
   635.02         21.3352
   635.16         21.1354
   635.30         20.9318
   635.44         20.7394
   635.58         20.5710
   635.72         20.4389
   635.86         20.3545
   636.00         20.3288
   636.14         20.3737
   636.28         20.4984
   636.42         20.7019
   636.56         20.9722
   636.70         21.2899
   636.84         21.6313
   636.98         21.9713
   637.12         22.2874
   637.26         22.5615
   637.40         22.7801
   637.54         22.9367
   637.68         23.0322
   637.82         23.0735
   637.96         23.0711
   638.10         23.0363
   638.24         22.9814
   638.38         22.9210
   638.52         22.8702
   638.66         22.8426
   638.80         22.8464
   638.94         22.8836
   639.08         22.9525
   639.22         23.0514
   639.36         23.1790
   639.50         23.3337
   639.64         23.5140
   639.78         23.7149
   639.92         23.9263
   640.06         24.1330
   640.20         24.3189
   640.34         24.4700
   640.48         24.5751
   640.62         24.6259
   640.76         24.6180
   640.90         24.5530
   641.04         24.4384
   641.18         24.2865
   641.32         24.1111
   641.46         23.9269
   641.60         23.7516
   641.74         23.6032
   641.88         23.4929
   642.02         23.4245
   642.16         23.3979
   642.30         23.4106
   642.44         23.4578
   642.58         23.5333
   642.72         23.6318
   642.86         23.7507
   643.00         23.8912
   643.14         24.0563
   643.28         24.2473
   643.42         24.4624
   643.56         24.6938
   643.70         24.9269
   643.84         25.1444
   643.98         25.3294
   644.12         25.4696
   644.26         25.5596
   644.40         25.5991
   644.54         25.5941
   644.68         25.5584
   644.82         25.5116
   644.96         25.4722
   645.10         25.4535
   645.24         25.4645
   645.38         25.5117
   645.52         25.5994
   645.66         25.7274
   645.80         25.8882
   645.94         26.0669
   646.08         26.2437
   646.22         26.3960
   646.36         26.5052
   646.50         26.5639
   646.64         26.5742
   646.78         26.5396
   646.92         26.4611
   647.06         26.3377
   647.20         26.1695
   647.34         25.9603
   647.48         25.7178
   647.62         25.4523
   647.76         25.1750
   647.90         24.8987
   648.04         24.6352
   648.18         24.3903
   648.32         24.1616
   648.46         23.9411
   648.60         23.7197
   648.74         23.4915
   648.88         23.2582
   649.02         23.0300
   649.16         22.8241
   649.30         22.6582
   649.44         22.5455
   649.58         22.4946
   649.72         22.5119
   649.86         22.6008
   650.00         22.7599
   650.14         22.9790
   650.28         23.2379
   650.42         23.5121
   650.56         23.7783
   650.70         24.0183
   650.84         24.2220
   650.98         24.3886
   651.12         24.5257
   651.26         24.6470
   651.40         24.7680
   651.54         24.9022
   651.68         25.0590
   651.82         25.2418
   651.96         25.4464
   652.10         25.6636
   652.24         25.8845
   652.38         26.1034
   652.52         26.3157
   652.66         26.5160
   652.80         26.7007
   652.94         26.8695
   653.08         27.0235
   653.22         27.1611
   653.36         27.2770
   653.50         27.3632
   653.64         27.4093
   653.78         27.4045
   653.92         27.3401
   654.06         27.2119
   654.20         27.0210
   654.34         26.7736
   654.48         26.4808
   654.62         26.1596
   654.76         25.8330
   654.90         25.5196
   655.04         25.2241
   655.18         24.9414
   655.32         24.6706
   655.46         24.4201
   655.60         24.1994
   655.74         24.0161
   655.88         23.8768
   656.02         23.7872
   656.16         23.7495
   656.30         23.7622
   656.44         23.8207
   656.58         23.9184
   656.72         24.0461
   656.86         24.1925
   657.00         24.3478
   657.14         24.5066
   657.28         24.6661
   657.42         24.8222
   657.56         24.9693
   657.70         25.1066
   657.84         25.2412
   657.98         25.3827
   658.12         25.5309
   658.26         25.6750
   658.40         25.8023
   658.54         25.9012
   658.68         25.9631
   658.82         25.9841
   658.96         25.9669
   659.10         25.9189
   659.24         25.8497
   659.38         25.7688
   659.52         25.6841
   659.66         25.6018
   659.80         25.5259
   659.94         25.4584
   660.08         25.3984
   660.22         25.3438
   660.36         25.2923
   660.50         25.2428
   660.64         25.1950
   660.78         25.1489
   660.92         25.1046
   661.06         25.0613
   661.20         25.0152
   661.34         24.9601
   661.48         24.8916
   661.62         24.8076
   661.76         24.7074
   661.90         24.5920
   662.04         24.4637
   662.18         24.3270
   662.32         24.1895
   662.46         24.0598
   662.60         23.9447
   662.74         23.8468
   662.88         23.7663
   663.02         23.7012
   663.16         23.6478
   663.30         23.6002
   663.44         23.5537
   663.58         23.5064
   663.72         23.4552
   663.86         23.3924
   664.00         23.3083
   664.14         23.1960
   664.28         23.0511
   664.42         22.8714
   664.56         22.6571
   664.70         22.4126
   664.84         22.1462
   664.98         21.8683
   665.12         21.5899
   665.26         21.3228
   665.40         21.0795
   665.54         20.8723
   665.68         20.7124
   665.82         20.6096
   665.96         20.5706
   666.10         20.5953
   666.24         20.6760
   666.38         20.7985
   666.52         20.9455
   666.66         21.0996
   666.80         21.2426
   666.94         21.3529
   667.08         21.4080
   667.22         21.3905
   667.36         21.2923
   667.50         21.1141
   667.64         20.8657
   667.78         20.5670
   667.92         20.2444
   668.06         19.9261
   668.20         19.6374
   668.34         19.3988
   668.48         19.2235
   668.62         19.1144
   668.76         19.0660
   668.90         19.0691
   669.04         19.1138
   669.18         19.1886
   669.32         19.2822
   669.46         19.3850
   669.60         19.4915
   669.74         19.6020
   669.88         19.7191
   670.02         19.8426
   670.16         19.9652
   670.30         20.0727
   670.44         20.1456
   670.58         20.1630
   670.72         20.1075
   670.86         19.9709
   671.00         19.7543
   671.14         19.4672
   671.28         19.1266
   671.42         18.7570
   671.56         18.3874
   671.70         18.0451
   671.84         17.7522
   671.98         17.5260
   672.12         17.3783
   672.26         17.3139
   672.40         17.3290
   672.54         17.4114
   672.68         17.5432
   672.82         17.7048
   672.96         17.8780
   673.10         18.0497
   673.24         18.2121
   673.38         18.3603
   673.52         18.4896
   673.66         18.5929
   673.80         18.6630
   673.94         18.6952
   674.08         18.6886
   674.22         18.6469
   674.36         18.5785
   674.50         18.4975
   674.64         18.4215
   674.78         18.3664
   674.92         18.3445
   675.06         18.3649
   675.20         18.4330
   675.34         18.5499
   675.48         18.7113
   675.62         18.9077
   675.76         19.1272
   675.90         19.3570
   676.04         19.5848
   676.18         19.8016
   676.32         20.0036
   676.46         20.1931
   676.60         20.3770
   676.74         20.5617
   676.88         20.7494
   677.02         20.9332
   677.16         21.0969
   677.30         21.2186
   677.44         21.2772
   677.58         21.2586
   677.72         21.1591
   677.86         20.9836
   678.00         20.7442
   678.14         20.4587
   678.28         20.1505
   678.42         19.8475
   678.56         19.5779
   678.70         19.3666
   678.84         19.2330
   678.98         19.1883
   679.12         19.2348
   679.26         19.3640
   679.40         19.5580
   679.54         19.7942
   679.68         20.0513
   679.82         20.3120
   679.96         20.5636
   680.10         20.7977
   680.24         21.0076
   680.38         21.1865
   680.52         21.3269
   680.66         21.4237
   680.80         21.4765
   680.94         21.4902
   681.08         21.4750
   681.22         21.4440
   681.36         21.4110
   681.50         21.3888
   681.64         21.3864
   681.78         21.4080
   681.92         21.4552
   682.06         21.5289
   682.20         21.6295
   682.34         21.7552
   682.48         21.9024
   682.62         22.0661
   682.76         22.2408
   682.90         22.4215
   683.04         22.6037
   683.18         22.7857
   683.32         22.9684
   683.46         23.1517
   683.60         23.3336
   683.74         23.5103
   683.88         23.6741
   684.02         23.8144
   684.16         23.9190
   684.30         23.9786
   684.44         23.9884
   684.58         23.9501
   684.72         23.8699
   684.86         23.7577
   685.00         23.6250
   685.14         23.4824
   685.28         23.3396
   685.42         23.2039
   685.56         23.0753
   685.70         22.9439
   685.84         22.7947
   685.98         22.6123
   686.12         22.3855
   686.26         22.1117
   686.40         21.7982
   686.54         21.4619
   686.68         21.1276
   686.82         20.8268
   686.96         20.5937
   687.10         20.4577
   687.24         20.4374
   687.38         20.5371
   687.52         20.7478
   687.66         21.0486
   687.80         21.4103
   687.94         21.8000
   688.08         22.1841
   688.22         22.5323
   688.36         22.8261
   688.50         23.0621
   688.64         23.2504
   688.78         23.4078
   688.92         23.5509
   689.06         23.6946
   689.20         23.8514
   689.34         24.0303
   689.48         24.2356
   689.62         24.4662
   689.76         24.7157
   689.90         24.9758
   690.04         25.2405
   690.18         25.5047
   690.32         25.7631
   690.46         26.0110
   690.60         26.2452
   690.74         26.4618
   690.88         26.6564
   691.02         26.8258
   691.16         26.9668
   691.30         27.0758
   691.44         27.1481
   691.58         27.1820
   691.72         27.1829
   691.86         27.1615
   692.00         27.1290
   692.14         27.0962
   692.28         27.0726
   692.42         27.0667
   692.56         27.0858
   692.70         27.1344
   692.84         27.2141
   692.98         27.3252
   693.12         27.4666
   693.26         27.6332
   693.40         27.8167
   693.54         28.0097
   693.68         28.2064
   693.82         28.4016
   693.96         28.5910
   694.10         28.7712
   694.24         28.9401
   694.38         29.0962
   694.52         29.2384
   694.66         29.3663
   694.80         29.4829
   694.94         29.5943
   695.08         29.7084
   695.22         29.8331
   695.36         29.9741
   695.50         30.1360
   695.64         30.3222
   695.78         30.5339
   695.92         30.7693
   696.06         31.0242
   696.20         31.2925
   696.34         31.5646
   696.48         31.8252
   696.62         32.0545
   696.76         32.2322
   696.90         32.3462
   697.04         32.3987
   697.18         32.4031
   697.32         32.3777
   697.46         32.3413
   697.60         32.3090
   697.74         32.2898
   697.88         32.2864
   698.02         32.2983
   698.16         32.3258
   698.30         32.3686
   698.44         32.4226
   698.58         32.4800
   698.72         32.5313
   698.86         32.5685
   699.00         32.5862
   699.14         32.5825
   699.28         32.5599
   699.42         32.5261
   699.56         32.4938
   699.70         32.4762
   699.84         32.4800
   699.98         32.5063
   700.12         32.5529
   700.26         32.6147
   700.40         32.6822
   700.54         32.7466
   700.68         32.8066
   700.82         32.8665
   700.96         32.9306
   701.10         32.9996
   701.24         33.0702
   701.38         33.1376
   701.52         33.1959
   701.66         33.2397
   701.80         33.2677
   701.94         33.2835
   702.08         33.2925
   702.22         33.3011
   702.36         33.3170
   702.50         33.3446
   702.64         33.3833
   702.78         33.4299
   702.92         33.4829
   703.06         33.5463
   703.20         33.6291
   703.34         33.7383
   703.48         33.8727
   703.62         34.0249
   703.76         34.1843
   703.90         34.3383
   704.04         34.4688
   704.18         34.5451
   704.32         34.5255
   704.46         34.3691
   704.60         34.0441
   704.74         33.5288
   704.88         32.8165
   705.02         31.9175
   705.16         30.8587
   705.30         29.6836
   705.44         28.4512
   705.58         27.2267
   705.72         26.0724
   705.86         25.0434
   706.00         24.1861
   706.14         23.5347
   706.28         23.1065
   706.42         22.8970
   706.56         22.8794
   706.70         23.0121
   706.84         23.2501
   706.98         23.5552
   707.12         23.8997
   707.26         24.2572
   707.40         24.5930
   707.54         24.8662
   707.68         25.0357
   707.82         25.0691
   707.96         24.9494
   708.10         24.6737
   708.24         24.2511
   708.38         23.7036
   708.52         23.0651
   708.66         22.3759
   708.80         21.6780
   708.94         21.0100
   709.08         20.4055
   709.22         19.8922
   709.36         19.4915
   709.50         19.2162
   709.64         19.0683
   709.78         19.0382
   709.92         19.1065
   710.06         19.2488
   710.20         19.4417
   710.34         19.6694
   710.48         19.9243
   710.62         20.2019
   710.76         20.4953
   710.90         20.7965
   711.04         21.0974
   711.18         21.3819
   711.32         21.6213
   711.46         21.7803
   711.60         21.8283
   711.74         21.7484
   711.88         21.5371
   712.02         21.2017
   712.16         20.7586
   712.30         20.2309
   712.44         19.6479
   712.58         19.0428
   712.72         18.4517
   712.86         17.9116
   713.00         17.4560
   713.14         17.1094
   713.28         16.8840
   713.42         16.7792
   713.56         16.7832
   713.70         16.8740
   713.84         17.0246
   713.98         17.2123
   714.12         17.4248
   714.26         17.6580
   714.40         17.9090
   714.54         18.1706
   714.68         18.4322
   714.82         18.6842
   714.96         18.9195
   715.10         19.1318
   715.24         19.3149
   715.38         19.4653
   715.52         19.5832
   715.66         19.6714
   715.80         19.7346
   715.94         19.7781
   716.08         19.8093
   716.22         19.8370
   716.36         19.8688
   716.50         19.9098
   716.64         19.9641
   716.78         20.0339
   716.92         20.1187
   717.06         20.2161
   717.20         20.3222
   717.34         20.4319
   717.48         20.5409
   717.62         20.6466
   717.76         20.7471
   717.90         20.8418
   718.04         20.9330
   718.18         21.0245
   718.32         21.1192
   718.46         21.2161
   718.60         21.3113
   718.74         21.3986
   718.88         21.4712
   719.02         21.5258
   719.16         21.5620
   719.30         21.5805
   719.44         21.5799
   719.58         21.5593
   719.72         21.5222
   719.86         21.4782
   720.00         21.4416
   720.14         21.4296
   720.28         21.4589
   720.42         21.5420
   720.56         21.6864
   720.70         21.8947
   720.84         22.1629
   720.98         22.4780
   721.12         22.8224
   721.26         23.1810
   721.40         23.5439
   721.54         23.9051
   721.68         24.2579
   721.82         24.5906
   721.96         24.8891
   722.10         25.1424
   722.24         25.3474
   722.38         25.5079
   722.52         25.6316
   722.66         25.7257
   722.80         25.7941
   722.94         25.8404
   723.08         25.8705
   723.22         25.8929
   723.36         25.9190
   723.50         25.9649
   723.64         26.0498
   723.78         26.1892
   723.92         26.3869
   724.06         26.6334
   724.20         26.9121
   724.34         27.2075
   724.48         27.5073
   724.62         27.8017
   724.76         28.0839
   724.90         28.3489
   725.04         28.5920
   725.18         28.8097
   725.32         29.0004
   725.46         29.1666
   725.60         29.3150
   725.74         29.4510
   725.88         29.5771
   726.02         29.6925
   726.16         29.7929
   726.30         29.8692
   726.44         29.9113
   726.58         29.9163
   726.72         29.8940
   726.86         29.8588
   727.00         29.8221
   727.14         29.7921
   727.28         29.7772
   727.42         29.7860
   727.56         29.8249
   727.70         29.8950
   727.84         29.9880
   727.98         30.0915
   728.12         30.1958
   728.26         30.2950
   728.40         30.3902
   728.54         30.4896
   728.68         30.6039
   728.82         30.7410
   728.96         30.9055
   729.10         31.0996
   729.24         31.3222
   729.38         31.5669
   729.52         31.8238
   729.66         32.0850
   729.80         32.3442
   729.94         32.5912
   730.08         32.8128
   730.22         32.9985
   730.36         33.1408
   730.50         33.2372
   730.64         33.2953
   730.78         33.3292
   730.92         33.3510
   731.06         33.3660
   731.20         33.3737
   731.34         33.3719
   731.48         33.3632
   731.62         33.3576
   731.76         33.3683
   731.90         33.4067
   732.04         33.4792
   732.18         33.5882
   732.32         33.7324
   732.46         33.9069
   732.60         34.1057
   732.74         34.3254
   732.88         34.5624
   733.02         34.8101
   733.16         35.0577
   733.30         35.2919
   733.44         35.5006
   733.58         35.6767
   733.72         35.8185
   733.86         35.9299
   734.00         36.0178
   734.14         36.0887
   734.28         36.1450
   734.42         36.1818
   734.56         36.1891
   734.70         36.1594
   734.84         36.0943
   734.98         36.0033
   735.12         35.8959
   735.26         35.7797
   735.40         35.6602
   735.54         35.5436
   735.68         35.4381
   735.82         35.3540
   735.96         35.3049
   736.10         35.3087
   736.24         35.3797
   736.38         35.5205
   736.52         35.7234
   736.66         35.9743
   736.80         36.2564
   736.94         36.5517
   737.08         36.8423
   737.22         37.1120
   737.36         37.3471
   737.50         37.5357
   737.64         37.6667
   737.78         37.7308
   737.92         37.7241
   738.06         37.6531
   738.20         37.5328
   738.34         37.3816
   738.48         37.2191
   738.62         37.0647
   738.76         36.9359
   738.90         36.8424
   739.04         36.7875
   739.18         36.7722
   739.32         36.7972
   739.46         36.8617
   739.60         36.9607
   739.74         37.0830
   739.88         37.2155
   740.02         37.3460
   740.16         37.4654
   740.30         37.5654
   740.44         37.6385
   740.58         37.6800
   740.72         37.6898
   740.86         37.6693
   741.00         37.6203
   741.14         37.5451
   741.28         37.4468
   741.42         37.3305
   741.56         37.2062
   741.70         37.0888
   741.84         36.9929
   741.98         36.9273
   742.12         36.8928
   742.26         36.8834
   742.40         36.8900
   742.54         36.9036
   742.68         36.9171
   742.82         36.9254
   742.96         36.9254
   743.10         36.9171
   743.24         36.9036
   743.38         36.8900
   743.52         36.8834
   743.66         36.8928
   743.80         36.9273
   743.94         36.9929
   744.08         37.0888
   744.22         37.2062
