# File HD25894
# Wavelength [nm]    Normalized Amplitude
   349.70         11.3363
   349.84         11.2720
   349.98         11.2407
   350.12         11.2394
   350.26         11.2626
   350.40         11.3041
   350.54         11.3586
   350.68         11.4204
   350.82         11.4797
   350.96         11.5229
   351.10         11.5388
   351.24         11.5229
   351.38         11.4797
   351.52         11.4204
   351.66         11.3586
   351.80         11.3041
   351.94         11.2626
   352.08         11.2394
   352.22         11.2407
   352.36         11.2720
   352.50         11.3363
   352.64         11.4328
   352.78         11.5562
   352.92         11.6991
   353.06         11.8519
   353.20         12.0024
   353.34         12.1371
   353.48         12.2446
   353.62         12.3185
   353.76         12.3588
   353.90         12.3694
   354.04         12.3550
   354.18         12.3196
   354.32         12.2647
   354.46         12.1903
   354.60         12.0968
   354.74         11.9873
   354.88         11.8654
   355.02         11.7333
   355.16         11.5910
   355.30         11.4366
   355.44         11.2693
   355.58         11.0894
   355.72         10.8963
   355.86         10.6895
   356.00         10.4728
   356.14         10.2552
   356.28         10.0498
   356.42         9.8675
   356.56         9.7129
   356.70         9.5842
   356.84         9.4764
   356.98         9.3808
   357.12         9.2849
   357.26         9.1741
   357.40         9.0384
   357.54         8.8744
   357.68         8.6867
   357.82         8.4901
   357.96         8.3096
   358.10         8.1769
   358.24         8.1246
   358.38         8.1817
   358.52         8.3691
   358.66         8.6952
   358.80         9.1510
   358.94         9.7080
   359.08         10.3198
   359.22         10.9308
   359.36         11.4881
   359.50         11.9471
   359.64         12.2741
   359.78         12.4507
   359.92         12.4778
   360.06         12.3761
   360.20         12.1812
   360.34         11.9333
   360.48         11.6670
   360.62         11.4077
   360.76         11.1744
   360.90         10.9840
   361.04         10.8506
   361.18         10.7848
   361.32         10.7958
   361.46         10.8906
   361.60         11.0661
   361.74         11.3045
   361.88         11.5770
   362.02         11.8520
   362.16         12.1035
   362.30         12.3151
   362.44         12.4821
   362.58         12.6089
   362.72         12.7053
   362.86         12.7818
   363.00         12.8459
   363.14         12.9007
   363.28         12.9493
   363.42         12.9957
   363.56         13.0432
   363.70         13.0921
   363.84         13.1431
   363.98         13.1995
   364.12         13.2643
   364.26         13.3378
   364.40         13.4238
   364.54         13.5363
   364.68         13.6984
   364.82         13.9306
   364.96         14.2411
   365.10         14.6235
   365.24         15.0573
   365.38         15.5094
   365.52         15.9394
   365.66         16.3060
   365.80         16.5759
   365.94         16.7341
   366.08         16.7861
   366.22         16.7530
   366.36         16.6629
   366.50         16.5408
   366.64         16.4034
   366.78         16.2588
   366.92         16.1110
   367.06         15.9637
   367.20         15.8192
   367.34         15.6740
   367.48         15.5182
   367.62         15.3433
   367.76         15.1513
   367.90         14.9550
   368.04         14.7735
   368.18         14.6265
   368.32         14.5300
   368.46         14.4965
   368.60         14.5370
   368.74         14.6560
   368.88         14.8474
   369.02         15.0936
   369.16         15.3666
   369.30         15.6320
   369.44         15.8556
   369.58         16.0077
   369.72         16.0686
   369.86         16.0329
   370.00         15.9142
   370.14         15.7438
   370.28         15.5644
   370.42         15.4171
   370.56         15.3256
   370.70         15.2882
   370.84         15.2832
   370.98         15.2835
   371.12         15.2694
   371.26         15.2302
   371.40         15.1576
   371.54         15.0407
   371.68         14.8712
   371.82         14.6473
   371.96         14.3746
   372.10         14.0642
   372.24         13.7294
   372.38         13.3852
   372.52         13.0485
   372.66         12.7334
   372.80         12.4497
   372.94         12.2022
   373.08         11.9879
   373.22         11.7964
   373.36         11.6186
   373.50         11.4544
   373.64         11.3125
   373.78         11.2042
   373.92         11.1389
   374.06         11.1236
   374.20         11.1626
   374.34         11.2575
   374.48         11.4017
   374.62         11.5790
   374.76         11.7724
   374.90         11.9733
   375.04         12.1802
   375.18         12.3923
   375.32         12.6040
   375.46         12.8038
   375.60         12.9755
   375.74         13.1054
   375.88         13.1910
   376.02         13.2462
   376.16         13.2960
   376.30         13.3690
   376.44         13.4929
   376.58         13.6888
   376.72         13.9637
   376.86         14.3082
   377.00         14.7011
   377.14         15.1159
   377.28         15.5257
   377.42         15.9050
   377.56         16.2276
   377.70         16.4675
   377.84         16.6056
   377.98         16.6317
   378.12         16.5433
   378.26         16.3460
   378.40         16.0520
   378.54         15.6775
   378.68         15.2427
   378.82         14.7738
   378.96         14.3028
   379.10         13.8661
   379.24         13.4982
   379.38         13.2253
   379.52         13.0629
   379.66         13.0154
   379.80         13.0761
   379.94         13.2246
   380.08         13.4276
   380.22         13.6452
   380.36         13.8391
   380.50         13.9752
   380.64         14.0246
   380.78         13.9660
   380.92         13.7893
   381.06         13.4980
   381.20         13.1065
   381.34         12.6372
   381.48         12.1170
   381.62         11.5734
   381.76         11.0324
   381.90         10.5153
   382.04         10.0380
   382.18         9.6124
   382.32         9.2468
   382.46         8.9431
   382.60         8.6952
   382.74         8.4932
   382.88         8.3323
   383.02         8.2156
   383.16         8.1512
   383.30         8.1471
   383.44         8.2076
   383.58         8.3326
   383.72         8.5162
   383.86         8.7447
   384.00         9.0002
   384.14         9.2642
   384.28         9.5190
   384.42         9.7465
   384.56         9.9281
   384.70         10.0468
   384.84         10.0935
   384.98         10.0717
   385.12         9.9971
   385.26         9.8923
   385.40         9.7827
   385.54         9.6908
   385.68         9.6312
   385.82         9.6077
   385.96         9.6160
   386.10         9.6508
   386.24         9.7111
   386.38         9.7975
   386.52         9.9068
   386.66         10.0312
   386.80         10.1612
   386.94         10.2885
   387.08         10.4089
   387.22         10.5230
   387.36         10.6353
   387.50         10.7524
   387.64         10.8820
   387.78         11.0310
   387.92         11.2048
   388.06         11.4082
   388.20         11.6459
   388.34         11.9231
   388.48         12.2458
   388.62         12.6188
   388.76         13.0420
   388.90         13.5039
   389.04         13.9784
   389.18         14.4323
   389.32         14.8380
   389.46         15.1807
   389.60         15.4592
   389.74         15.6821
   389.88         15.8642
   390.02         16.0233
   390.16         16.1800
   390.30         16.3542
   390.44         16.5586
   390.58         16.7920
   390.72         17.0369
   390.86         17.2641
   391.00         17.4436
   391.14         17.5507
   391.28         17.5652
   391.42         17.4694
   391.56         17.2473
   391.70         16.8874
   391.84         16.3867
   391.98         15.7511
   392.12         14.9951
   392.26         14.1427
   392.40         13.2273
   392.54         12.2929
   392.68         11.3911
   392.82         10.5752
   392.96         9.8924
   393.10         9.3792
   393.24         9.0620
   393.38         8.9586
   393.52         9.0792
   393.66         9.4231
   393.80         9.9729
   393.94         10.6913
   394.08         11.5251
   394.22         12.4149
   394.36         13.3044
   394.50         14.1457
   394.64         14.9040
   394.78         15.5538
   394.92         16.0733
   395.06         16.4430
   395.20         16.6451
   395.34         16.6623
   395.48         16.4783
   395.62         16.0847
   395.76         15.4910
   395.90         14.7314
   396.04         13.8639
   396.18         12.9627
   396.32         12.1111
   396.46         11.3928
   396.60         10.8844
   396.74         10.6455
   396.88         10.7127
   397.02         11.0942
   397.16         11.7686
   397.30         12.6876
   397.44         13.7803
   397.58         14.9661
   397.72         16.1680
   397.86         17.3196
   398.00         18.3684
   398.14         19.2792
   398.28         20.0368
   398.42         20.6446
   398.56         21.1210
   398.70         21.4942
   398.84         21.7960
   398.98         22.0556
   399.12         22.2933
   399.26         22.5152
   399.40         22.7159
   399.54         22.8885
   399.68         23.0294
   399.82         23.1405
   399.96         23.2283
   400.10         23.3028
   400.24         23.3748
   400.38         23.4533
   400.52         23.5453
   400.66         23.6555
   400.80         23.7868
   400.94         23.9412
   401.08         24.1189
   401.22         24.3172
   401.36         24.5296
   401.50         24.7444
   401.64         24.9421
   401.78         25.0961
   401.92         25.1803
   402.06         25.1786
   402.20         25.0890
   402.34         24.9230
   402.48         24.7029
   402.62         24.4585
   402.76         24.2195
   402.90         24.0084
   403.04         23.8368
   403.18         23.7025
   403.32         23.5931
   403.46         23.4969
   403.60         23.4092
   403.74         23.3327
   403.88         23.2716
   404.02         23.2250
   404.16         23.1854
   404.30         23.1400
   404.44         23.0781
   404.58         22.9979
   404.72         22.9074
   404.86         22.8180
   405.00         22.7334
   405.14         22.6470
   405.28         22.5473
   405.42         22.4242
   405.56         22.2757
   405.70         22.1087
   405.84         21.9387
   405.98         21.7906
   406.12         21.6941
   406.26         21.6687
   406.40         21.7137
   406.54         21.8120
   406.68         21.9443
   406.82         22.0989
   406.96         22.2696
   407.10         22.4522
   407.24         22.6445
   407.38         22.8460
   407.52         23.0571
   407.66         23.2798
   407.80         23.5191
   407.94         23.7796
   408.08         24.0570
   408.22         24.3360
   408.36         24.5907
   408.50         24.7916
   408.64         24.9112
   408.78         24.9249
   408.92         24.8135
   409.06         24.5731
   409.20         24.2224
   409.34         23.7985
   409.48         23.3456
   409.62         22.9074
   409.76         22.5252
   409.90         22.2370
   410.04         22.0740
   410.18         22.0554
   410.32         22.1838
   410.46         22.4431
   410.60         22.8029
   410.74         23.2244
   410.88         23.6661
   411.02         24.0902
   411.16         24.4657
   411.30         24.7696
   411.44         24.9887
   411.58         25.1225
   411.72         25.1797
   411.86         25.1698
   412.00         25.0989
   412.14         24.9732
   412.28         24.8043
   412.42         24.6096
   412.56         24.4117
   412.70         24.2351
   412.84         24.0970
   412.98         24.0003
   413.12         23.9363
   413.26         23.8944
   413.40         23.8680
   413.54         23.8540
   413.68         23.8483
   413.82         23.8429
   413.96         23.8274
   414.10         23.7912
   414.24         23.7260
   414.38         23.6270
   414.52         23.4968
   414.66         23.3494
   414.80         23.2085
   414.94         23.0997
   415.08         23.0436
   415.22         23.0505
   415.36         23.1177
   415.50         23.2304
   415.64         23.3718
   415.78         23.5287
   415.92         23.6880
   416.06         23.8326
   416.20         23.9405
   416.34         23.9900
   416.48         23.9654
   416.62         23.8601
   416.76         23.6777
   416.90         23.4316
   417.04         23.1441
   417.18         22.8447
   417.32         22.5636
   417.46         22.3240
   417.60         22.1407
   417.74         22.0220
   417.88         21.9704
   418.02         21.9831
   418.16         22.0527
   418.30         22.1640
   418.44         22.2922
   418.58         22.4086
   418.72         22.4913
   418.86         22.5296
   419.00         22.5226
   419.14         22.4786
   419.28         22.4138
   419.42         22.3501
   419.56         22.3105
   419.70         22.3149
   419.84         22.3776
   419.98         22.5054
   420.12         22.6964
   420.26         22.9400
   420.40         23.2184
   420.54         23.5107
   420.68         23.7965
   420.82         24.0595
   420.96         24.2863
   421.10         24.4645
   421.24         24.5811
   421.38         24.6214
   421.52         24.5751
   421.66         24.4475
   421.80         24.2601
   421.94         24.0414
   422.08         23.8177
   422.22         23.6084
   422.36         23.4254
   422.50         23.2757
   422.64         23.1649
   422.78         23.0990
   422.92         23.0848
   423.06         23.1309
   423.20         23.2434
   423.34         23.4187
   423.48         23.6375
   423.62         23.8661
   423.76         24.0663
   423.90         24.2093
   424.04         24.2849
   424.18         24.3015
   424.32         24.2764
   424.46         24.2236
   424.60         24.1473
   424.74         24.0435
   424.88         23.9084
   425.02         23.7500
   425.16         23.5919
   425.30         23.4639
   425.44         23.3900
   425.58         23.3802
   425.72         23.4272
   425.86         23.5075
   426.00         23.5855
   426.14         23.6253
   426.28         23.6036
   426.42         23.5172
   426.56         23.3799
   426.70         23.2126
   426.84         23.0363
   426.98         22.8705
   427.12         22.7327
   427.26         22.6337
   427.40         22.5784
   427.54         22.5694
   427.68         22.6050
   427.82         22.6728
   427.96         22.7492
   428.10         22.8088
   428.24         22.8292
   428.38         22.7927
   428.52         22.6864
   428.66         22.5039
   428.80         22.2476
   428.94         21.9262
   429.08         21.5515
   429.22         21.1351
   429.36         20.6845
   429.50         20.2048
   429.64         19.7020
   429.78         19.1865
   429.92         18.6768
   430.06         18.2023
   430.20         17.8043
   430.34         17.5327
   430.48         17.4391
   430.62         17.5652
   430.76         17.9312
   430.90         18.5251
   431.04         19.3011
   431.18         20.1873
   431.32         21.1021
   431.46         21.9722
   431.60         22.7449
   431.74         23.3898
   431.88         23.8926
   432.02         24.2523
   432.16         24.4855
   432.30         24.6234
   432.44         24.7017
   432.58         24.7489
   432.72         24.7789
   432.86         24.7934
   433.00         24.7874
   433.14         24.7526
   433.28         24.6812
   433.42         24.5701
   433.56         24.4231
   433.70         24.2547
   433.84         24.0894
   433.98         23.9567
   434.12         23.8880
   434.26         23.9088
   434.40         24.0291
   434.54         24.2427
   434.68         24.5318
   434.82         24.8706
   434.96         25.2292
   435.10         25.5804
   435.24         25.9084
   435.38         26.2105
   435.52         26.4937
   435.66         26.7664
   435.80         27.0330
   435.94         27.2898
   436.08         27.5212
   436.22         27.7011
   436.36         27.8027
   436.50         27.8085
   436.64         27.7176
   436.78         27.5440
   436.92         27.3055
   437.06         27.0111
   437.20         26.6615
   437.34         26.2599
   437.48         25.8200
   437.62         25.3643
   437.76         24.9172
   437.90         24.5011
   438.04         24.1349
   438.18         23.8356
   438.32         23.6214
   438.46         23.5112
   438.60         23.5163
   438.74         23.6338
   438.88         23.8494
   439.02         24.1412
   439.16         24.4782
   439.30         24.8191
   439.44         25.1204
   439.58         25.3489
   439.72         25.4909
   439.86         25.5581
   440.00         25.5820
   440.14         25.5955
   440.28         25.6214
   440.42         25.6744
   440.56         25.7678
   440.70         25.9149
   440.84         26.1236
   440.98         26.3909
   441.12         26.7013
   441.26         27.0295
   441.40         27.3484
   441.54         27.6368
   441.68         27.8811
   441.82         28.0735
   441.96         28.2127
   442.10         28.3019
   442.24         28.3458
   442.38         28.3498
   442.52         28.3215
   442.66         28.2714
   442.80         28.2096
   442.94         28.1439
   443.08         28.0840
   443.22         28.0422
   443.36         28.0286
   443.50         28.0478
   443.64         28.1001
   443.78         28.1856
   443.92         28.3022
   444.06         28.4407
   444.20         28.5811
   444.34         28.6957
   444.48         28.7566
   444.62         28.7438
   444.76         28.6475
   444.90         28.4698
   445.04         28.2253
   445.18         27.9376
   445.32         27.6333
   445.46         27.3379
   445.60         27.0764
   445.74         26.8753
   445.88         26.7589
   446.02         26.7433
   446.16         26.8335
   446.30         27.0251
   446.44         27.3057
   446.58         27.6541
   446.72         28.0380
   446.86         28.4187
   447.00         28.7633
   447.14         29.0528
   447.28         29.2815
   447.42         29.4532
   447.56         29.5759
   447.70         29.6578
   447.84         29.7053
   447.98         29.7228
   448.12         29.7134
   448.26         29.6813
   448.40         29.6351
   448.54         29.5883
   448.68         29.5547
   448.82         29.5445
   448.96         29.5664
   449.10         29.6290
   449.24         29.7370
   449.38         29.8899
   449.52         30.0852
   449.66         30.3209
   449.80         30.5903
   449.94         30.8774
   450.08         31.1570
   450.22         31.3997
   450.36         31.5814
   450.50         31.6869
   450.64         31.7113
   450.78         31.6594
   450.92         31.5433
   451.06         31.3786
   451.20         31.1786
   451.34         30.9512
   451.48         30.6992
   451.62         30.4252
   451.76         30.1320
   451.90         29.8202
   452.04         29.4914
   452.18         29.1509
   452.32         28.8112
   452.46         28.4934
   452.60         28.2233
   452.74         28.0236
   452.88         27.9110
   453.02         27.8941
   453.16         27.9704
   453.30         28.1238
   453.44         28.3289
   453.58         28.5548
   453.72         28.7715
   453.86         28.9546
   454.00         29.0878
   454.14         29.1658
   454.28         29.1957
   454.42         29.1934
   454.56         29.1801
   454.70         29.1776
   454.84         29.2064
   454.98         29.2818
   455.12         29.4066
   455.26         29.5696
   455.40         29.7540
   455.54         29.9451
   455.68         30.1331
   455.82         30.3083
   455.96         30.4628
   456.10         30.5966
   456.24         30.7162
   456.38         30.8289
   456.52         30.9377
   456.66         31.0383
   456.80         31.1203
   456.94         31.1719
   457.08         31.1818
   457.22         31.1413
   457.36         31.0466
   457.50         30.9009
   457.64         30.7137
   457.78         30.5003
   457.92         30.2814
   458.06         30.0786
   458.20         29.9085
   458.34         29.7787
   458.48         29.6887
   458.62         29.6333
   458.76         29.6071
   458.90         29.6034
   459.04         29.6128
   459.18         29.6257
   459.32         29.6382
   459.46         29.6542
   459.60         29.6846
   459.74         29.7414
   459.88         29.8319
   460.02         29.9580
   460.16         30.1147
   460.30         30.2914
   460.44         30.4724
   460.58         30.6401
   460.72         30.7816
   460.86         30.8912
   461.00         30.9678
   461.14         31.0139
   461.28         31.0362
   461.42         31.0439
   461.56         31.0458
   461.70         31.0474
   461.84         31.0531
   461.98         31.0661
   462.12         31.0858
   462.26         31.1064
   462.40         31.1170
   462.54         31.1055
   462.68         31.0646
   462.82         30.9923
   462.96         30.8908
   463.10         30.7631
   463.24         30.6120
   463.38         30.4391
   463.52         30.2455
   463.66         30.0336
   463.80         29.8111
   463.94         29.5908
   464.08         29.3864
   464.22         29.2079
   464.36         29.0637
   464.50         28.9617
   464.64         28.9108
   464.78         28.9168
   464.92         28.9776
   465.06         29.0833
   465.20         29.2170
   465.34         29.3547
   465.48         29.4671
   465.62         29.5263
   465.76         29.5135
   465.90         29.4227
   466.04         29.2609
   466.18         29.0488
   466.32         28.8172
   466.46         28.5975
   466.60         28.4129
   466.74         28.2765
   466.88         28.1949
   467.02         28.1739
   467.16         28.2169
   467.30         28.3193
   467.44         28.4638
   467.58         28.6242
   467.72         28.7753
   467.86         28.8971
   468.00         28.9778
   468.14         29.0172
   468.28         29.0259
   468.42         29.0182
   468.56         29.0025
   468.70         28.9787
   468.84         28.9419
   468.98         28.8835
   469.12         28.7927
   469.26         28.6634
   469.40         28.5006
   469.54         28.3176
   469.68         28.1299
   469.82         27.9518
   469.96         27.7946
   470.10         27.6671
   470.24         27.5770
   470.38         27.5328
   470.52         27.5432
   470.66         27.6154
   470.80         27.7525
   470.94         27.9508
   471.08         28.1994
   471.22         28.4826
   471.36         28.7809
   471.50         29.0738
   471.64         29.3401
   471.78         29.5597
   471.92         29.7176
   472.06         29.8064
   472.20         29.8252
   472.34         29.7784
   472.48         29.6759
   472.62         29.5338
   472.76         29.3737
   472.90         29.2214
   473.04         29.1038
   473.18         29.0443
   473.32         29.0572
   473.46         29.1456
   473.60         29.3028
   473.74         29.5146
   473.88         29.7595
   474.02         30.0097
   474.16         30.2372
   474.30         30.4196
   474.44         30.5437
   474.58         30.6078
   474.72         30.6190
   474.86         30.5858
   475.00         30.5134
   475.14         30.4074
   475.28         30.2754
   475.42         30.1253
   475.56         29.9652
   475.70         29.8066
   475.84         29.6621
   475.98         29.5415
   476.12         29.4531
   476.26         29.4062
   476.40         29.4102
   476.54         29.4716
   476.68         29.5928
   476.82         29.7733
   476.96         30.0079
   477.10         30.2836
   477.24         30.5791
   477.38         30.8673
   477.52         31.1197
   477.66         31.3121
   477.80         31.4310
   477.94         31.4748
   478.08         31.4539
   478.22         31.3884
   478.36         31.3014
   478.50         31.2120
   478.64         31.1327
   478.78         31.0719
   478.92         31.0358
   479.06         31.0259
   479.20         31.0373
   479.34         31.0612
   479.48         31.0856
   479.62         31.0982
   479.76         31.0910
   479.90         31.0636
   480.04         31.0213
   480.18         30.9725
   480.32         30.9268
   480.46         30.8938
   480.60         30.8816
   480.74         30.8949
   480.88         30.9317
   481.02         30.9826
   481.16         31.0342
   481.30         31.0743
   481.44         31.0946
   481.58         31.0904
   481.72         31.0575
   481.86         30.9949
   482.00         30.9090
   482.14         30.8129
   482.28         30.7224
   482.42         30.6516
   482.56         30.6077
   482.70         30.5901
   482.84         30.5922
   482.98         30.6064
   483.12         30.6257
   483.26         30.6438
   483.40         30.6539
   483.54         30.6483
   483.68         30.6212
   483.82         30.5706
   483.96         30.4992
   484.10         30.4115
   484.24         30.3065
   484.38         30.1788
   484.52         30.0229
   484.66         29.8336
   484.80         29.5969
   484.94         29.2911
   485.08         28.9021
   485.22         28.4308
   485.36         27.8966
   485.50         27.3355
   485.64         26.7918
   485.78         26.3066
   485.92         25.9072
   486.06         25.6081
   486.20         25.4179
   486.34         25.3424
   486.48         25.3831
   486.62         25.5330
   486.76         25.7746
   486.90         26.0855
   487.04         26.4462
   487.18         26.8385
   487.32         27.2379
   487.46         27.6146
   487.60         27.9456
   487.74         28.2188
   487.88         28.4256
   488.02         28.5583
   488.16         28.6164
   488.30         28.6092
   488.44         28.5534
   488.58         28.4727
   488.72         28.3988
   488.86         28.3639
   489.00         28.3930
   489.14         28.4980
   489.28         28.6797
   489.42         28.9322
   489.56         29.2424
   489.70         29.5850
   489.84         29.9215
   489.98         30.2110
   490.12         30.4234
   490.26         30.5461
   490.40         30.5817
   490.54         30.5410
   490.68         30.4365
   490.82         30.2770
   490.96         30.0662
   491.10         29.8054
   491.24         29.5012
   491.38         29.1698
   491.52         28.8359
   491.66         28.5295
   491.80         28.2807
   491.94         28.1154
   492.08         28.0492
   492.22         28.0821
   492.36         28.2002
   492.50         28.3836
   492.64         28.6104
   492.78         28.8565
   492.92         29.0958
   493.06         29.3047
   493.20         29.4650
   493.34         29.5667
   493.48         29.6132
   493.62         29.6224
   493.76         29.6195
   493.90         29.6303
   494.04         29.6762
   494.18         29.7670
   494.32         29.8994
   494.46         30.0572
   494.60         30.2122
   494.74         30.3324
   494.88         30.3946
   495.02         30.3899
   495.16         30.3225
   495.30         30.2072
   495.44         30.0656
   495.58         29.9211
   495.72         29.7934
   495.86         29.6934
   496.00         29.6242
   496.14         29.5862
   496.28         29.5786
   496.42         29.5992
   496.56         29.6431
   496.70         29.6988
   496.84         29.7489
   496.98         29.7758
   497.12         29.7624
   497.26         29.6958
   497.40         29.5760
   497.54         29.4156
   497.68         29.2333
   497.82         29.0485
   497.96         28.8797
   498.10         28.7408
   498.24         28.6417
   498.38         28.5911
   498.52         28.5968
   498.66         28.6632
   498.80         28.7892
   498.94         28.9649
   499.08         29.1714
   499.22         29.3820
   499.36         29.5636
   499.50         29.6839
   499.64         29.7205
   499.78         29.6675
   499.92         29.5352
   500.06         29.3430
   500.20         29.1120
   500.34         28.8599
   500.48         28.5994
   500.62         28.3388
   500.76         28.0837
   500.90         27.8404
   501.04         27.6172
   501.18         27.4226
   501.32         27.2626
   501.46         27.1405
   501.60         27.0564
   501.74         27.0100
   501.88         27.0018
   502.02         27.0348
   502.16         27.1167
   502.30         27.2576
   502.44         27.4582
   502.58         27.7034
   502.72         27.9689
   502.86         28.2273
   503.00         28.4493
   503.14         28.6122
   503.28         28.7067
   503.42         28.7382
   503.56         28.7210
   503.70         28.6699
   503.84         28.5957
   503.98         28.5081
   504.12         28.4189
   504.26         28.3398
   504.40         28.2813
   504.54         28.2524
   504.68         28.2604
   504.82         28.3095
   504.96         28.3984
   505.10         28.5200
   505.24         28.6639
   505.38         28.8184
   505.52         28.9690
   505.66         29.1035
   505.80         29.2195
   505.94         29.3179
   506.08         29.3936
   506.22         29.4357
   506.36         29.4345
   506.50         29.3875
   506.64         29.3026
   506.78         29.1903
   506.92         29.0576
   507.06         28.9128
   507.20         28.7667
   507.34         28.6314
   507.48         28.5169
   507.62         28.4299
   507.76         28.3745
   507.90         28.3523
   508.04         28.3642
   508.18         28.4117
   508.32         28.4970
   508.46         28.6187
   508.60         28.7638
   508.74         28.9098
   508.88         29.0346
   509.02         29.1234
   509.16         29.1696
   509.30         29.1709
   509.44         29.1275
   509.58         29.0454
   509.72         28.9384
   509.86         28.8224
   510.00         28.7124
   510.14         28.6228
   510.28         28.5664
   510.42         28.5496
   510.56         28.5741
   510.70         28.6382
   510.84         28.7355
   510.98         28.8543
   511.12         28.9785
   511.26         29.0904
   511.40         29.1748
   511.54         29.2227
   511.68         29.2292
   511.82         29.1899
   511.96         29.1028
   512.10         28.9724
   512.24         28.8106
   512.38         28.6334
   512.52         28.4574
   512.66         28.2956
   512.80         28.1553
   512.94         28.0385
   513.08         27.9451
   513.22         27.8741
   513.36         27.8221
   513.50         27.7824
   513.64         27.7468
   513.78         27.7095
   513.92         27.6691
   514.06         27.6272
   514.20         27.5873
   514.34         27.5539
   514.48         27.5338
   514.62         27.5346
   514.76         27.5589
   514.90         27.6019
   515.04         27.6517
   515.18         27.6923
   515.32         27.7045
   515.46         27.6662
   515.60         27.5554
   515.74         27.3542
   515.88         27.0529
   516.02         26.6500
   516.16         26.1534
   516.30         25.5877
   516.44         24.9972
   516.58         24.4370
   516.72         23.9597
   516.86         23.6084
   517.00         23.4081
   517.14         23.3563
   517.28         23.4267
   517.42         23.5829
   517.56         23.7922
   517.70         24.0285
   517.84         24.2692
   517.98         24.4941
   518.12         24.6888
   518.26         24.8504
   518.40         24.9894
   518.54         25.1238
   518.68         25.2736
   518.82         25.4605
   518.96         25.7051
   519.10         26.0153
   519.24         26.3774
   519.38         26.7591
   519.52         27.1194
   519.66         27.4213
   519.80         27.6446
   519.94         27.7934
   520.08         27.8903
   520.22         27.9586
   520.36         28.0078
   520.50         28.0364
   520.64         28.0440
   520.78         28.0365
   520.92         28.0249
   521.06         28.0208
   521.20         28.0303
   521.34         28.0496
   521.48         28.0652
   521.62         28.0606
   521.76         28.0219
   521.90         27.9414
   522.04         27.8203
   522.18         27.6697
   522.32         27.5078
   522.46         27.3556
   522.60         27.2355
   522.74         27.1659
   522.88         27.1558
   523.02         27.2076
   523.16         27.3233
   523.30         27.5030
   523.44         27.7386
   523.58         28.0120
   523.72         28.2976
   523.86         28.5669
   524.00         28.7949
   524.14         28.9669
   524.28         29.0788
   524.42         29.1330
   524.56         29.1368
   524.70         29.1029
   524.84         29.0454
   524.98         28.9736
   525.12         28.8880
   525.26         28.7800
   525.40         28.6344
   525.54         28.4352
   525.68         28.1726
   525.82         27.8434
   525.96         27.4526
   526.10         27.0154
   526.24         26.5544
   526.38         26.0989
   526.52         25.6841
   526.66         25.3479
   526.80         25.1212
   526.94         25.0211
   527.08         25.0504
   527.22         25.1991
   527.36         25.4473
   527.50         25.7667
   527.64         26.1258
   527.78         26.4984
   527.92         26.8684
   528.06         27.2283
   528.20         27.5757
   528.34         27.9081
   528.48         28.2189
   528.62         28.4976
   528.76         28.7332
   528.90         28.9173
   529.04         29.0476
   529.18         29.1280
   529.32         29.1653
   529.46         29.1668
   529.60         29.1431
   529.74         29.1100
   529.88         29.0867
   530.02         29.0909
   530.16         29.1330
   530.30         29.2135
   530.44         29.3253
   530.58         29.4546
   530.72         29.5821
   530.86         29.6875
   531.00         29.7533
   531.14         29.7653
   531.28         29.7159
   531.42         29.6054
   531.56         29.4372
   531.70         29.2138
   531.84         28.9430
   531.98         28.6413
   532.12         28.3306
   532.26         28.0351
   532.40         27.7793
   532.54         27.5825
   532.68         27.4531
   532.82         27.3887
   532.96         27.3817
   533.10         27.4234
   533.24         27.5043
   533.38         27.6125
   533.52         27.7336
   533.66         27.8512
   533.80         27.9498
   533.94         28.0200
   534.08         28.0607
   534.22         28.0797
   534.36         28.0957
   534.50         28.1337
   534.64         28.2131
   534.78         28.3399
   534.92         28.5103
   535.06         28.7125
   535.20         28.9259
   535.34         29.1265
   535.48         29.2933
   535.62         29.4114
   535.76         29.4688
   535.90         29.4554
   536.04         29.3659
   536.18         29.2041
   536.32         28.9855
   536.46         28.7366
   536.60         28.4887
   536.74         28.2714
   536.88         28.1079
   537.02         28.0128
   537.16         27.9890
   537.30         28.0296
   537.44         28.1223
   537.58         28.2520
   537.72         28.3987
   537.86         28.5384
   538.00         28.6477
   538.14         28.7098
   538.28         28.7174
   538.42         28.6701
   538.56         28.5723
   538.70         28.4339
   538.84         28.2697
   538.98         28.0961
   539.12         27.9253
   539.26         27.7604
   539.40         27.6000
   539.54         27.4438
   539.68         27.2948
   539.82         27.1564
   539.96         27.0319
   540.10         26.9272
   540.24         26.8485
   540.38         26.7990
   540.52         26.7818
   540.66         26.8029
   540.80         26.8689
   540.94         26.9810
   541.08         27.1326
   541.22         27.3128
   541.36         27.5104
   541.50         27.7147
   541.64         27.9126
   541.78         28.0876
   541.92         28.2261
   542.06         28.3221
   542.20         28.3731
   542.34         28.3780
   542.48         28.3403
   542.62         28.2728
   542.76         28.1960
   542.90         28.1319
   543.04         28.0989
   543.18         28.1091
   543.32         28.1627
   543.46         28.2494
   543.60         28.3541
   543.74         28.4638
   543.88         28.5720
   544.02         28.6774
   544.16         28.7766
   544.30         28.8588
   544.44         28.9105
   544.58         28.9255
   544.72         28.9076
   544.86         28.8666
   545.00         28.8161
   545.14         28.7695
   545.28         28.7352
   545.42         28.7146
   545.56         28.7009
   545.70         28.6838
   545.84         28.6554
   545.98         28.6130
   546.12         28.5603
   546.26         28.5058
   546.40         28.4572
   546.54         28.4156
   546.68         28.3745
   546.82         28.3245
   546.96         28.2593
   547.10         28.1805
   547.24         28.0975
   547.38         28.0199
   547.52         27.9511
   547.66         27.8892
   547.80         27.8327
   547.94         27.7839
   548.08         27.7484
   548.22         27.7327
   548.36         27.7418
   548.50         27.7776
   548.64         27.8381
   548.78         27.9173
   548.92         28.0080
   549.06         28.1032
   549.20         28.1970
   549.34         28.2846
   549.48         28.3619
   549.62         28.4246
   549.76         28.4698
   549.90         28.4958
   550.04         28.4979
   550.18         28.4703
   550.32         28.4126
   550.46         28.3319
   550.60         28.2401
   550.74         28.1495
   550.88         28.0719
   551.02         28.0170
   551.16         27.9903
   551.30         27.9919
   551.44         28.0169
   551.58         28.0556
   551.72         28.0949
   551.86         28.1213
   552.00         28.1267
   552.14         28.1096
   552.28         28.0715
   552.42         28.0143
   552.56         27.9418
   552.70         27.8600
   552.84         27.7782
   552.98         27.7086
   553.12         27.6622
   553.26         27.6447
   553.40         27.6566
   553.54         27.6942
   553.68         27.7526
   553.82         27.8286
   553.96         27.9213
   554.10         28.0281
   554.24         28.1442
   554.38         28.2651
   554.52         28.3868
   554.66         28.5029
   554.80         28.6030
   554.94         28.6757
   555.08         28.7138
   555.22         28.7163
   555.36         28.6852
   555.50         28.6242
   555.64         28.5377
   555.78         28.4284
   555.92         28.2996
   556.06         28.1576
   556.20         28.0114
   556.34         27.8707
   556.48         27.7427
   556.62         27.6323
   556.76         27.5421
   556.90         27.4747
   557.04         27.4327
   557.18         27.4165
   557.32         27.4238
   557.46         27.4486
   557.60         27.4805
   557.74         27.5051
   557.88         27.5079
   558.02         27.4783
   558.16         27.4122
   558.30         27.3127
   558.44         27.1901
   558.58         27.0606
   558.72         26.9406
   558.86         26.8409
   559.00         26.7657
   559.14         26.7146
   559.28         26.6856
   559.42         26.6780
   559.56         26.6937
   559.70         26.7349
   559.84         26.8011
   559.98         26.8894
   560.12         26.9965
   560.26         27.1170
   560.40         27.2418
   560.54         27.3601
   560.68         27.4614
   560.82         27.5381
   560.96         27.5852
   561.10         27.5991
   561.24         27.5769
   561.38         27.5164
   561.52         27.4206
   561.66         27.3020
   561.80         27.1815
   561.94         27.0830
   562.08         27.0269
   562.22         27.0229
   562.36         27.0678
   562.50         27.1493
   562.64         27.2530
   562.78         27.3639
   562.92         27.4669
   563.06         27.5509
   563.20         27.6119
   563.34         27.6524
   563.48         27.6794
   563.62         27.6996
   563.76         27.7152
   563.90         27.7249
   564.04         27.7287
   564.18         27.7299
   564.32         27.7309
   564.46         27.7302
   564.60         27.7221
   564.74         27.6990
   564.88         27.6532
   565.02         27.5804
   565.16         27.4823
   565.30         27.3658
   565.44         27.2389
   565.58         27.1115
   565.72         26.9948
   565.86         26.8998
   566.00         26.8366
   566.14         26.8139
   566.28         26.8355
   566.42         26.8987
   566.56         26.9978
   566.70         27.1260
   566.84         27.2738
   566.98         27.4282
   567.12         27.5747
   567.26         27.6990
   567.40         27.7896
   567.54         27.8387
   567.68         27.8431
   567.82         27.8040
   567.96         27.7270
   568.10         27.6228
   568.24         27.5057
   568.38         27.3897
   568.52         27.2868
   568.66         27.2074
   568.80         27.1593
   568.94         27.1446
   569.08         27.1580
   569.22         27.1915
   569.36         27.2367
   569.50         27.2840
   569.64         27.3205
   569.78         27.3315
   569.92         27.3048
   570.06         27.2352
   570.20         27.1264
   570.34         26.9909
   570.48         26.8471
   570.62         26.7138
   570.76         26.6050
   570.90         26.5291
   571.04         26.4924
   571.18         26.5019
   571.32         26.5625
   571.46         26.6739
   571.60         26.8304
   571.74         27.0215
   571.88         27.2351
   572.02         27.4571
   572.16         27.6723
   572.30         27.8666
   572.44         28.0307
   572.58         28.1620
   572.72         28.2633
   572.86         28.3402
   573.00         28.3974
   573.14         28.4360
   573.28         28.4548
   573.42         28.4541
   573.56         28.4358
   573.70         28.4036
   573.84         28.3608
   573.98         28.3093
   574.12         28.2477
   574.26         28.1715
   574.40         28.0772
   574.54         27.9665
   574.68         27.8449
   574.82         27.7195
   574.96         27.5967
   575.10         27.4818
   575.24         27.3800
   575.38         27.2974
   575.52         27.2393
   575.66         27.2088
   575.80         27.2070
   575.94         27.2347
   576.08         27.2895
   576.22         27.3663
   576.36         27.4587
   576.50         27.5596
   576.64         27.6602
   576.78         27.7487
   576.92         27.8127
   577.06         27.8429
   577.20         27.8321
   577.34         27.7750
   577.48         27.6706
   577.62         27.5253
   577.76         27.3530
   577.90         27.1703
   578.04         26.9935
   578.18         26.8372
   578.32         26.7141
   578.46         26.6331
   578.60         26.5981
   578.74         26.6073
   578.88         26.6559
   579.02         26.7372
   579.16         26.8432
   579.30         26.9625
   579.44         27.0802
   579.58         27.1828
   579.72         27.2629
   579.86         27.3194
   580.00         27.3557
   580.14         27.3789
   580.28         27.3959
   580.42         27.4102
   580.56         27.4232
   580.70         27.4372
   580.84         27.4564
   580.98         27.4861
   581.12         27.5295
   581.26         27.5868
   581.40         27.6563
   581.54         27.7342
   581.68         27.8147
   581.82         27.8930
   581.96         27.9660
   582.10         28.0313
   582.24         28.0878
   582.38         28.1355
   582.52         28.1745
   582.66         28.2068
   582.80         28.2342
   582.94         28.2577
   583.08         28.2789
   583.22         28.2994
   583.36         28.3197
   583.50         28.3383
   583.64         28.3507
   583.78         28.3509
   583.92         28.3348
   584.06         28.3009
   584.20         28.2485
   584.34         28.1770
   584.48         28.0866
   584.62         27.9766
   584.76         27.8472
   584.90         27.7028
   585.04         27.5519
   585.18         27.4045
   585.32         27.2698
   585.46         27.1544
   585.60         27.0641
   585.74         27.0051
   585.88         26.9822
   586.02         26.9972
   586.16         27.0493
   586.30         27.1372
   586.44         27.2563
   586.58         27.3964
   586.72         27.5439
   586.86         27.6840
   587.00         27.8025
   587.14         27.8881
   587.28         27.9341
   587.42         27.9373
   587.56         27.8946
   587.70         27.7955
   587.84         27.6234
   587.98         27.3687
   588.12         27.0358
   588.26         26.6375
   588.40         26.1895
   588.54         25.7125
   588.68         25.2350
   588.82         24.7925
   588.96         24.4203
   589.10         24.1467
   589.24         23.9928
   589.38         23.9713
   589.52         24.0833
   589.66         24.3179
   589.80         24.6544
   589.94         25.0635
   590.08         25.5077
   590.22         25.9449
   590.36         26.3370
   590.50         26.6618
   590.64         26.9154
   590.78         27.0994
   590.92         27.2159
   591.06         27.2735
   591.20         27.2885
   591.34         27.2778
   591.48         27.2533
   591.62         27.2215
   591.76         27.1852
   591.90         27.1457
   592.04         27.1041
   592.18         27.0617
   592.32         27.0203
   592.46         26.9827
   592.60         26.9521
   592.74         26.9301
   592.88         26.9190
   593.02         26.9211
   593.16         26.9373
   593.30         26.9654
   593.44         26.9996
   593.58         27.0311
   593.72         27.0503
   593.86         27.0475
   594.00         27.0166
   594.14         26.9581
   594.28         26.8777
   594.42         26.7820
   594.56         26.6788
   594.70         26.5791
   594.84         26.4947
   594.98         26.4367
   595.12         26.4137
   595.26         26.4281
   595.40         26.4762
   595.54         26.5520
   595.68         26.6486
   595.82         26.7595
   595.96         26.8767
   596.10         26.9889
   596.24         27.0852
   596.38         27.1576
   596.52         27.2003
   596.66         27.2098
   596.80         27.1867
   596.94         27.1355
   597.08         27.0621
   597.22         26.9717
   597.36         26.8688
   597.50         26.7580
   597.64         26.6451
   597.78         26.5354
   597.92         26.4336
   598.06         26.3454
   598.20         26.2787
   598.34         26.2398
   598.48         26.2291
   598.62         26.2423
   598.76         26.2731
   598.90         26.3176
   599.04         26.3732
   599.18         26.4354
   599.32         26.4991
   599.46         26.5578
   599.60         26.6015
   599.74         26.6186
   599.88         26.6024
   600.02         26.5555
   600.16         26.4868
   600.30         26.4043
   600.44         26.3142
   600.58         26.2222
   600.72         26.1324
   600.86         26.0446
   601.00         25.9555
   601.14         25.8632
   601.28         25.7682
   601.42         25.6733
   601.56         25.5826
   601.70         25.5012
   601.84         25.4341
   601.98         25.3845
   602.12         25.3542
   602.26         25.3453
   602.40         25.3609
   602.54         25.4029
   602.68         25.4715
   602.82         25.5634
   602.96         25.6726
   603.10         25.7921
   603.24         25.9163
   603.38         26.0389
   603.52         26.1549
   603.66         26.2616
   603.80         26.3579
   603.94         26.4417
   604.08         26.5102
   604.22         26.5600
   604.36         26.5872
   604.50         26.5881
   604.64         26.5614
   604.78         26.5107
   604.92         26.4436
   605.06         26.3689
   605.20         26.2952
   605.34         26.2310
   605.48         26.1822
   605.62         26.1510
   605.76         26.1389
   605.90         26.1479
   606.04         26.1777
   606.18         26.2243
   606.32         26.2798
   606.46         26.3338
   606.60         26.3753
   606.74         26.3949
   606.88         26.3874
   607.02         26.3507
   607.16         26.2849
   607.30         26.1929
   607.44         26.0796
   607.58         25.9521
   607.72         25.8180
   607.86         25.6849
   608.00         25.5598
   608.14         25.4476
   608.28         25.3522
   608.42         25.2761
   608.56         25.2196
   608.70         25.1794
   608.84         25.1484
   608.98         25.1184
   609.12         25.0836
   609.26         25.0441
   609.40         25.0033
   609.54         24.9651
   609.68         24.9348
   609.82         24.9195
   609.96         24.9260
   610.10         24.9582
   610.24         25.0161
   610.38         25.0963
   610.52         25.1925
   610.66         25.2966
   610.80         25.3982
   610.94         25.4867
   611.08         25.5523
   611.22         25.5884
   611.36         25.5917
   611.50         25.5626
   611.64         25.5051
   611.78         25.4290
   611.92         25.3457
   612.06         25.2659
   612.20         25.1986
   612.34         25.1475
   612.48         25.1077
   612.62         25.0708
   612.76         25.0321
   612.90         24.9898
   613.04         24.9439
   613.18         24.8970
   613.32         24.8528
   613.46         24.8150
   613.60         24.7879
   613.74         24.7760
   613.88         24.7826
   614.02         24.8085
   614.16         24.8511
   614.30         24.9053
   614.44         24.9645
   614.58         25.0221
   614.72         25.0713
   614.86         25.1026
   615.00         25.1050
   615.14         25.0723
   615.28         25.0085
   615.42         24.9227
   615.56         24.8224
   615.70         24.7143
   615.84         24.6051
   615.98         24.5004
   616.12         24.4063
   616.26         24.3294
   616.40         24.2766
   616.54         24.2538
   616.68         24.2649
   616.82         24.3119
   616.96         24.3946
   617.10         24.5111
   617.24         24.6571
   617.38         24.8226
   617.52         24.9926
   617.66         25.1522
   617.80         25.2899
   617.94         25.3966
   618.08         25.4661
   618.22         25.4967
   618.36         25.4927
   618.50         25.4640
   618.64         25.4241
   618.78         25.3873
   618.92         25.3662
   619.06         25.3710
   619.20         25.4079
   619.34         25.4768
   619.48         25.5736
   619.62         25.6911
   619.76         25.8197
   619.90         25.9481
   620.04         26.0633
   620.18         26.1533
   620.32         26.2095
   620.46         26.2285
   620.60         26.2125
   620.74         26.1683
   620.88         26.1032
   621.02         26.0233
   621.16         25.9347
   621.30         25.8434
   621.44         25.7535
   621.58         25.6682
   621.72         25.5911
   621.86         25.5241
   622.00         25.4665
   622.14         25.4178
   622.28         25.3788
   622.42         25.3503
   622.56         25.3315
   622.70         25.3194
   622.84         25.3115
   622.98         25.3074
   623.12         25.3068
   623.26         25.3081
   623.40         25.3068
   623.54         25.2972
   623.68         25.2779
   623.82         25.2507
   623.96         25.2172
   624.10         25.1769
   624.24         25.1285
   624.38         25.0721
   624.52         25.0089
   624.66         24.9424
   624.80         24.8797
   624.94         24.8285
   625.08         24.7893
   625.22         24.7523
   625.36         24.7060
   625.50         24.6465
   625.64         24.5781
   625.78         24.5095
   625.92         24.4502
   626.06         24.4090
   626.20         24.3954
   626.34         24.4170
   626.48         24.4756
   626.62         24.5643
   626.76         24.6702
   626.90         24.7803
   627.04         24.8833
   627.18         24.9707
   627.32         25.0371
   627.46         25.0804
   627.60         25.1012
   627.74         25.1023
   627.88         25.0910
   628.02         25.0816
   628.16         25.0907
   628.30         25.1297
   628.44         25.2009
   628.58         25.2967
   628.72         25.4040
   628.86         25.5072
   629.00         25.5898
   629.14         25.6376
   629.28         25.6428
   629.42         25.6070
   629.56         25.5399
   629.70         25.4550
   629.84         25.3669
   629.98         25.2892
   630.12         25.2306
   630.26         25.1931
   630.40         25.1717
   630.54         25.1576
   630.68         25.1415
   630.82         25.1165
   630.96         25.0772
   631.10         25.0185
   631.24         24.9392
   631.38         24.8454
   631.52         24.7501
   631.66         24.6684
   631.80         24.6141
   631.94         24.5957
   632.08         24.6168
   632.22         24.6758
   632.36         24.7638
   632.50         24.8661
   632.64         24.9659
   632.78         25.0478
   632.92         25.1011
   633.06         25.1216
   633.20         25.1116
   633.34         25.0782
   633.48         25.0318
   633.62         24.9839
   633.76         24.9453
   633.90         24.9243
   634.04         24.9251
   634.18         24.9472
   634.32         24.9853
   634.46         25.0311
   634.60         25.0760
   634.74         25.1117
   634.88         25.1298
   635.02         25.1210
   635.16         25.0805
   635.30         25.0104
   635.44         24.9175
   635.58         24.8110
   635.72         24.7017
   635.86         24.6013
   636.00         24.5204
   636.14         24.4675
   636.28         24.4477
   636.42         24.4620
   636.56         24.5078
   636.70         24.5800
   636.84         24.6692
   636.98         24.7638
   637.12         24.8517
   637.26         24.9237
   637.40         24.9742
   637.54         25.0015
   637.68         25.0078
   637.82         24.9980
   637.96         24.9784
   638.10         24.9539
   638.24         24.9270
   638.38         24.8989
   638.52         24.8699
   638.66         24.8394
   638.80         24.8036
   638.94         24.7588
   639.08         24.7048
   639.22         24.6445
   639.36         24.5811
   639.50         24.5180
   639.64         24.4587
   639.78         24.4076
   639.92         24.3691
   640.06         24.3466
   640.20         24.3415
   640.34         24.3523
   640.48         24.3743
   640.62         24.4009
   640.76         24.4247
   640.90         24.4392
   641.04         24.4421
   641.18         24.4357
   641.32         24.4239
   641.46         24.4121
   641.60         24.4082
   641.74         24.4184
   641.88         24.4431
   642.02         24.4780
   642.16         24.5193
   642.30         24.5660
   642.44         24.6184
   642.58         24.6744
   642.72         24.7286
   642.86         24.7752
   643.00         24.8102
   643.14         24.8328
   643.28         24.8453
   643.42         24.8518
   643.56         24.8564
   643.70         24.8610
   643.84         24.8626
   643.98         24.8561
   644.12         24.8382
   644.26         24.8071
   644.40         24.7623
   644.54         24.7062
   644.68         24.6448
   644.82         24.5853
   644.96         24.5314
   645.10         24.4823
   645.24         24.4357
   645.38         24.3924
   645.52         24.3558
   645.66         24.3285
   645.80         24.3116
   645.94         24.3036
   646.08         24.3015
   646.22         24.3028
   646.36         24.3053
   646.50         24.3093
   646.64         24.3191
   646.78         24.3392
   646.92         24.3693
   647.06         24.4068
   647.20         24.4498
   647.34         24.4970
   647.48         24.5460
   647.62         24.5945
   647.76         24.6411
   647.90         24.6833
   648.04         24.7143
   648.18         24.7226
   648.32         24.6966
   648.46         24.6290
   648.60         24.5195
   648.74         24.3753
   648.88         24.2076
   649.02         24.0303
   649.16         23.8618
   649.30         23.7225
   649.44         23.6296
   649.58         23.5944
   649.72         23.6246
   649.86         23.7229
   650.00         23.8838
   650.14         24.0936
   650.28         24.3316
   650.42         24.5730
   650.56         24.7933
   650.70         24.9740
   650.84         25.1071
   650.98         25.1949
   651.12         25.2459
   651.26         25.2707
   651.40         25.2781
   651.54         25.2748
   651.68         25.2669
   651.82         25.2593
   651.96         25.2541
   652.10         25.2499
   652.24         25.2455
   652.38         25.2415
   652.52         25.2377
   652.66         25.2330
   652.80         25.2271
   652.94         25.2212
   653.08         25.2178
   653.22         25.2195
   653.36         25.2272
   653.50         25.2395
   653.64         25.2520
   653.78         25.2588
   653.92         25.2544
   654.06         25.2335
   654.20         25.1918
   654.34         25.1266
   654.48         25.0374
   654.62         24.9239
   654.76         24.7835
   654.90         24.6092
   655.04         24.3889
   655.18         24.1137
   655.32         23.7888
   655.46         23.4329
   655.60         23.0711
   655.74         22.7291
   655.88         22.4313
   656.02         22.1993
   656.16         22.0509
   656.30         21.9983
   656.44         22.0459
   656.58         22.1905
   656.72         22.4211
   656.86         22.7192
   657.00         23.0597
   657.14         23.4143
   657.28         23.7546
   657.42         24.0559
   657.56         24.3026
   657.70         24.4920
   657.84         24.6329
   657.98         24.7358
   658.12         24.8043
   658.26         24.8382
   658.40         24.8400
   658.54         24.8163
   658.68         24.7772
   658.82         24.7355
   658.96         24.7054
   659.10         24.6980
   659.24         24.7195
   659.38         24.7705
   659.52         24.8457
   659.66         24.9367
   659.80         25.0343
   659.94         25.1299
   660.08         25.2149
   660.22         25.2815
   660.36         25.3245
   660.50         25.3407
   660.64         25.3311
   660.78         25.3029
   660.92         25.2668
   661.06         25.2320
   661.20         25.2040
   661.34         25.1854
   661.48         25.1774
   661.62         25.1777
   661.76         25.1802
   661.90         25.1779
   662.04         25.1651
   662.18         25.1369
   662.32         25.0925
   662.46         25.0356
   662.60         24.9727
   662.74         24.9095
   662.88         24.8500
   663.02         24.7971
   663.16         24.7522
   663.30         24.7167
   663.44         24.6913
   663.58         24.6751
   663.72         24.6672
   663.86         24.6676
   664.00         24.6765
   664.14         24.6943
   664.28         24.7210
   664.42         24.7562
   664.56         24.7983
   664.70         24.8447
   664.84         24.8923
   664.98         24.9376
   665.12         24.9747
   665.26         24.9962
   665.40         24.9953
   665.54         24.9686
   665.68         24.9180
   665.82         24.8488
   665.96         24.7685
   666.10         24.6855
   666.24         24.6083
   666.38         24.5441
   666.52         24.4953
   666.66         24.4616
   666.80         24.4425
   666.94         24.4370
   667.08         24.4418
   667.22         24.4521
   667.36         24.4636
   667.50         24.4748
   667.64         24.4866
   667.78         24.5006
   667.92         24.5199
   668.06         24.5478
   668.20         24.5853
   668.34         24.6297
   668.48         24.6753
   668.62         24.7161
   668.76         24.7470
   668.90         24.7639
   669.04         24.7646
   669.18         24.7483
   669.32         24.7179
   669.46         24.6787
   669.60         24.6358
   669.74         24.5923
   669.88         24.5497
   670.02         24.5091
   670.16         24.4712
   670.30         24.4343
   670.44         24.3950
   670.58         24.3501
   670.72         24.2969
   670.86         24.2351
   671.00         24.1672
   671.14         24.0992
   671.28         24.0400
   671.42         23.9970
   671.56         23.9758
   671.70         23.9791
   671.84         24.0049
   671.98         24.0482
   672.12         24.1034
   672.26         24.1643
   672.40         24.2248
   672.54         24.2793
   672.68         24.3235
   672.82         24.3553
   672.96         24.3741
   673.10         24.3801
   673.24         24.3745
   673.38         24.3595
   673.52         24.3379
   673.66         24.3120
   673.80         24.2830
   673.94         24.2512
   674.08         24.2166
   674.22         24.1804
   674.36         24.1441
   674.50         24.1097
   674.64         24.0814
   674.78         24.0638
   674.92         24.0586
   675.06         24.0645
   675.20         24.0795
   675.34         24.1017
   675.48         24.1288
   675.62         24.1578
   675.76         24.1845
   675.90         24.2050
   676.04         24.2171
   676.18         24.2207
   676.32         24.2173
   676.46         24.2095
   676.60         24.2009
   676.74         24.1948
   676.88         24.1940
   677.02         24.1991
   677.16         24.2081
   677.30         24.2167
   677.44         24.2213
   677.58         24.2204
   677.72         24.2160
   677.86         24.2120
   678.00         24.2105
   678.14         24.2120
   678.28         24.2166
   678.42         24.2242
   678.56         24.2351
   678.70         24.2506
   678.84         24.2728
   678.98         24.3017
   679.12         24.3351
   679.26         24.3694
   679.40         24.4001
   679.54         24.4229
   679.68         24.4349
   679.82         24.4349
   679.96         24.4252
   680.10         24.4106
   680.24         24.3964
   680.38         24.3859
   680.52         24.3798
   680.66         24.3769
   680.80         24.3753
   680.94         24.3728
   681.08         24.3684
   681.22         24.3629
   681.36         24.3571
   681.50         24.3504
   681.64         24.3398
   681.78         24.3224
   681.92         24.2965
   682.06         24.2626
   682.20         24.2233
   682.34         24.1808
   682.48         24.1363
   682.62         24.0898
   682.76         24.0395
   682.90         23.9823
   683.04         23.9151
   683.18         23.8367
   683.32         23.7484
   683.46         23.6543
   683.60         23.5606
   683.74         23.4750
   683.88         23.4045
   684.02         23.3543
   684.16         23.3281
   684.30         23.3268
   684.44         23.3492
   684.58         23.3917
   684.72         23.4480
   684.86         23.5098
   685.00         23.5679
   685.14         23.6137
   685.28         23.6408
   685.42         23.6409
   685.56         23.6013
   685.70         23.5046
   685.84         23.3346
   685.98         23.0827
   686.12         22.7486
   686.26         22.3397
   686.40         21.8727
   686.54         21.3722
   686.68         20.8692
   686.82         20.3980
   686.96         19.9922
   687.10         19.6813
   687.24         19.4863
   687.38         19.4161
   687.52         19.4669
   687.66         19.6223
   687.80         19.8560
   687.94         20.1354
   688.08         20.4244
   688.22         20.6912
   688.36         20.9158
   688.50         21.0917
   688.64         21.2229
   688.78         21.3183
   688.92         21.3893
   689.06         21.4480
   689.20         21.5054
   689.34         21.5697
   689.48         21.6457
   689.62         21.7335
   689.76         21.8294
   689.90         21.9277
   690.04         22.0238
   690.18         22.1138
   690.32         22.1943
   690.46         22.2636
   690.60         22.3211
   690.74         22.3667
   690.88         22.4024
   691.02         22.4309
   691.16         22.4544
   691.30         22.4748
   691.44         22.4937
   691.58         22.5132
   691.72         22.5338
   691.86         22.5565
   692.00         22.5828
   692.14         22.6127
   692.28         22.6451
   692.42         22.6801
   692.56         22.7182
   692.70         22.7592
   692.84         22.8015
   692.98         22.8445
   693.12         22.8883
   693.26         22.9315
   693.40         22.9715
   693.54         23.0072
   693.68         23.0385
   693.82         23.0656
   693.96         23.0897
   694.10         23.1127
   694.24         23.1351
   694.38         23.1563
   694.52         23.1767
   694.66         23.1968
   694.80         23.2160
   694.94         23.2336
   695.08         23.2494
   695.22         23.2631
   695.36         23.2742
   695.50         23.2841
   695.64         23.2961
   695.78         23.3133
   695.92         23.3375
   696.06         23.3704
   696.20         23.4133
   696.34         23.4645
   696.48         23.5172
   696.62         23.5607
   696.76         23.5844
   696.90         23.5821
   697.04         23.5530
   697.18         23.5006
   697.32         23.4320
   697.46         23.3562
   697.60         23.2829
   697.74         23.2213
   697.88         23.1792
   698.02         23.1609
   698.16         23.1681
   698.30         23.1994
   698.44         23.2500
   698.58         23.3127
   698.72         23.3778
   698.86         23.4355
   699.00         23.4767
   699.14         23.4942
   699.28         23.4834
   699.42         23.4452
   699.56         23.3848
   699.70         23.3098
   699.84         23.2277
   699.98         23.1458
   700.12         23.0696
   700.26         23.0023
   700.40         22.9448
   700.54         22.8959
   700.68         22.8564
   700.82         22.8275
   700.96         22.8089
   701.10         22.7968
   701.24         22.7856
   701.38         22.7705
   701.52         22.7499
   701.66         22.7241
   701.80         22.6949
   701.94         22.6657
   702.08         22.6428
   702.22         22.6326
   702.36         22.6378
   702.50         22.6573
   702.64         22.6886
   702.78         22.7277
   702.92         22.7713
   703.06         22.8183
   703.20         22.8694
   703.34         22.9258
   703.48         22.9852
   703.62         23.0436
   703.76         23.0987
   703.90         23.1492
   704.04         23.1922
   704.18         23.2238
   704.32         23.2412
   704.46         23.2436
   704.60         23.2315
   704.74         23.2063
   704.88         23.1688
   705.02         23.1206
   705.16         23.0656
   705.30         23.0087
   705.44         22.9549
   705.58         22.9081
   705.72         22.8695
   705.86         22.8382
   706.00         22.8138
   706.14         22.7967
   706.28         22.7879
   706.42         22.7884
   706.56         22.7981
   706.70         22.8170
   706.84         22.8469
   706.98         22.8894
   707.12         22.9428
   707.26         23.0024
   707.40         23.0617
   707.54         23.1148
   707.68         23.1571
   707.82         23.1841
   707.96         23.1922
   708.10         23.1799
   708.24         23.1489
   708.38         23.1034
   708.52         23.0510
   708.66         23.0009
   708.80         22.9616
   708.94         22.9392
   709.08         22.9383
   709.22         22.9612
   709.36         23.0068
   709.50         23.0699
   709.64         23.1416
   709.78         23.2106
   709.92         23.2670
   710.06         23.3046
   710.20         23.3212
   710.34         23.3181
   710.48         23.2976
   710.62         23.2641
   710.76         23.2242
   710.90         23.1854
   711.04         23.1537
   711.18         23.1344
   711.32         23.1293
   711.46         23.1363
   711.60         23.1522
   711.74         23.1739
   711.88         23.1965
   712.02         23.2148
   712.16         23.2258
   712.30         23.2303
   712.44         23.2325
   712.58         23.2393
   712.72         23.2572
   712.86         23.2888
   713.00         23.3321
   713.14         23.3808
   713.28         23.4263
   713.42         23.4601
   713.56         23.4742
   713.70         23.4621
   713.84         23.4210
   713.98         23.3522
   714.12         23.2613
   714.26         23.1579
   714.40         23.0526
   714.54         22.9554
   714.68         22.8770
   714.82         22.8255
   714.96         22.8037
   715.10         22.8077
   715.24         22.8283
   715.38         22.8536
   715.52         22.8732
   715.66         22.8798
   715.80         22.8686
   715.94         22.8366
   716.08         22.7828
   716.22         22.7086
   716.36         22.6172
   716.50         22.5130
   716.64         22.4016
   716.78         22.2876
   716.92         22.1731
   717.06         22.0585
   717.20         21.9418
   717.34         21.8180
   717.48         21.6825
   717.62         21.5341
   717.76         21.3758
   717.90         21.2127
   718.04         21.0528
   718.18         20.9056
   718.32         20.7799
   718.46         20.6824
   718.60         20.6170
   718.74         20.5859
   718.88         20.5892
   719.02         20.6259
   719.16         20.6930
   719.30         20.7830
   719.44         20.8838
   719.58         20.9849
   719.72         21.0818
   719.86         21.1763
   720.00         21.2746
   720.14         21.3847
   720.28         21.5122
   720.42         21.6594
   720.56         21.8274
   720.70         22.0174
   720.84         22.2273
   720.98         22.4475
   721.12         22.6633
   721.26         22.8598
   721.40         23.0244
   721.54         23.1489
   721.68         23.2294
   721.82         23.2644
   721.96         23.2531
   722.10         23.1990
   722.24         23.1109
   722.38         23.0005
   722.52         22.8794
   722.66         22.7550
   722.80         22.6314
   722.94         22.5126
   723.08         22.4022
   723.22         22.3036
   723.36         22.2198
   723.50         22.1533
   723.64         22.1067
   723.78         22.0815
   723.92         22.0749
   724.06         22.0806
   724.20         22.0930
   724.34         22.1081
   724.48         22.1217
   724.62         22.1308
   724.76         22.1360
   724.90         22.1387
   725.04         22.1398
   725.18         22.1386
   725.32         22.1336
   725.46         22.1267
   725.60         22.1238
   725.74         22.1296
   725.88         22.1463
   726.02         22.1725
   726.16         22.2023
   726.30         22.2256
   726.44         22.2307
   726.58         22.2114
   726.72         22.1720
   726.86         22.1211
   727.00         22.0643
   727.14         22.0039
   727.28         21.9423
   727.42         21.8833
   727.56         21.8291
   727.70         21.7802
   727.84         21.7352
   727.98         21.6910
   728.12         21.6443
   728.26         21.5925
   728.40         21.5347
   728.54         21.4734
   728.68         21.4138
   728.82         21.3599
   728.96         21.3146
   729.10         21.2808
   729.24         21.2628
   729.38         21.2633
   729.52         21.2803
   729.66         21.3087
   729.80         21.3424
   729.94         21.3761
   730.08         21.4061
   730.22         21.4306
   730.36         21.4495
   730.50         21.4656
   730.64         21.4825
   730.78         21.5041
   730.92         21.5337
   731.06         21.5719
   731.20         21.6156
   731.34         21.6586
   731.48         21.6939
   731.62         21.7177
   731.76         21.7306
   731.90         21.7349
   732.04         21.7337
   732.18         21.7295
   732.32         21.7253
   732.46         21.7256
   732.60         21.7361
   732.74         21.7614
   732.88         21.8023
   733.02         21.8561
   733.16         21.9180
   733.30         21.9816
   733.44         22.0414
   733.58         22.0932
   733.72         22.1326
   733.86         22.1544
   734.00         22.1541
   734.14         22.1303
   734.28         22.0839
   734.42         22.0162
   734.56         21.9288
   734.70         21.8264
   734.84         21.7166
   734.98         21.6079
   735.12         21.5074
   735.26         21.4200
   735.40         21.3482
   735.54         21.2939
   735.68         21.2583
   735.82         21.2402
   735.96         21.2377
   736.10         21.2490
   736.24         21.2709
   736.38         21.2993
   736.52         21.3299
   736.66         21.3591
   736.80         21.3849
   736.94         21.4065
   737.08         21.4240
   737.22         21.4379
   737.36         21.4470
   737.50         21.4465
   737.64         21.4290
   737.78         21.3890
   737.92         21.3235
   738.06         21.2330
   738.20         21.1223
   738.34         20.9998
   738.48         20.8752
   738.62         20.7585
   738.76         20.6585
   738.90         20.5818
   739.04         20.5330
   739.18         20.5143
   739.32         20.5257
   739.46         20.5638
   739.60         20.6223
   739.74         20.6924
   739.88         20.7633
   740.02         20.8239
   740.16         20.8657
   740.30         20.8846
   740.44         20.8800
   740.58         20.8534
   740.72         20.8099
   740.86         20.7570
   741.00         20.7015
   741.14         20.6479
   741.28         20.5992
   741.42         20.5584
   741.56         20.5293
   741.70         20.5156
   741.84         20.5187
   741.98         20.5369
   742.12         20.5661
   742.26         20.6021
   742.40         20.6401
   742.54         20.6749
   742.68         20.7014
   742.82         20.7158
   742.96         20.7158
   743.10         20.7014
   743.24         20.6749
   743.38         20.6401
   743.52         20.6021
   743.66         20.5661
   743.80         20.5369
   743.94         20.5187
   744.08         20.5156
   744.22         20.5293
