# File HD29883
# Wavelength [nm]    Normalized Amplitude
   349.70         8.5274
   349.84         8.4644
   349.98         8.4568
   350.12         8.4939
   350.26         8.5605
   350.40         8.6420
   350.54         8.7265
   350.68         8.8037
   350.82         8.8645
   350.96         8.9029
   351.10         8.9159
   351.24         8.9029
   351.38         8.8645
   351.52         8.8037
   351.66         8.7265
   351.80         8.6420
   351.94         8.5605
   352.08         8.4939
   352.22         8.4568
   352.36         8.4644
   352.50         8.5274
   352.64         8.6496
   352.78         8.8288
   352.92         9.0594
   353.06         9.3319
   353.20         9.6322
   353.34         9.9418
   353.48         10.2397
   353.62         10.5059
   353.76         10.7269
   353.90         10.8970
   354.04         11.0166
   354.18         11.0891
   354.32         11.1176
   354.46         11.1029
   354.60         11.0435
   354.74         10.9393
   354.88         10.7961
   355.02         10.6241
   355.16         10.4328
   355.30         10.2280
   355.44         10.0112
   355.58         9.7819
   355.72         9.5391
   355.86         9.2806
   356.00         9.0036
   356.14         8.7084
   356.28         8.4002
   356.42         8.0885
   356.56         7.7831
   356.70         7.4896
   356.84         7.2110
   356.98         6.9490
   357.12         6.7055
   357.26         6.4813
   357.40         6.2777
   357.54         6.0955
   357.68         5.9349
   357.82         5.7970
   357.96         5.6875
   358.10         5.6178
   358.24         5.6025
   358.38         5.6567
   358.52         5.7954
   358.66         6.0314
   358.80         6.3691
   358.94         6.7992
   359.08         7.2958
   359.22         7.8189
   359.36         8.3220
   359.50         8.7612
   359.64         9.1012
   359.78         9.3181
   359.92         9.4018
   360.06         9.3586
   360.20         9.2100
   360.34         8.9881
   360.48         8.7287
   360.62         8.4629
   360.76         8.2140
   360.90         7.9994
   361.04         7.8343
   361.18         7.7315
   361.32         7.6985
   361.46         7.7368
   361.60         7.8424
   361.74         8.0040
   361.88         8.2032
   362.02         8.4171
   362.16         8.6242
   362.30         8.8084
   362.44         8.9619
   362.58         9.0853
   362.72         9.1842
   362.86         9.2662
   363.00         9.3367
   363.14         9.3976
   363.28         9.4485
   363.42         9.4889
   363.56         9.5198
   363.70         9.5424
   363.84         9.5569
   363.98         9.5637
   364.12         9.5655
   364.26         9.5665
   364.40         9.5726
   364.54         9.5948
   364.68         9.6522
   364.82         9.7696
   364.96         9.9690
   365.10         10.2608
   365.24         10.6394
   365.38         11.0838
   365.52         11.5619
   365.66         12.0355
   365.80         12.4646
   365.94         12.8153
   366.08         13.0660
   366.22         13.2120
   366.36         13.2634
   366.50         13.2387
   366.64         13.1581
   366.78         13.0373
   366.92         12.8861
   367.06         12.7100
   367.20         12.5141
   367.34         12.3021
   367.48         12.0751
   367.62         11.8315
   367.76         11.5723
   367.90         11.3086
   368.04         11.0617
   368.18         10.8561
   368.32         10.7115
   368.46         10.6391
   368.60         10.6444
   368.74         10.7292
   368.88         10.8893
   369.02         11.1102
   369.16         11.3664
   369.30         11.6242
   369.44         11.8461
   369.58         11.9975
   369.72         12.0539
   369.86         12.0041
   370.00         11.8538
   370.14         11.6259
   370.28         11.3570
   370.42         11.0891
   370.56         10.8569
   370.70         10.6769
   370.84         10.5439
   370.98         10.4390
   371.12         10.3404
   371.26         10.2323
   371.40         10.1061
   371.54         9.9566
   371.68         9.7784
   371.82         9.5675
   371.96         9.3252
   372.10         9.0586
   372.24         8.7789
   372.38         8.4983
   372.52         8.2276
   372.66         7.9756
   372.80         7.7472
   372.94         7.5414
   373.08         7.3526
   373.22         7.1725
   373.36         6.9939
   373.50         6.8142
   373.64         6.6376
   373.78         6.4743
   373.92         6.3375
   374.06         6.2403
   374.20         6.1931
   374.34         6.2035
   374.48         6.2751
   374.62         6.4032
   374.76         6.5752
   374.90         6.7764
   375.04         6.9963
   375.18         7.2285
   375.32         7.4665
   375.46         7.7014
   375.60         7.9223
   375.74         8.1195
   375.88         8.2897
   376.02         8.4392
   376.16         8.5836
   376.30         8.7447
   376.44         8.9454
   376.58         9.2046
   376.72         9.5340
   376.86         9.9344
   377.00         10.3923
   377.14         10.8829
   377.28         11.3746
   377.42         11.8342
   377.56         12.2292
   377.70         12.5294
   377.84         12.7109
   377.98         12.7621
   378.12         12.6863
   378.26         12.4981
   378.40         12.2185
   378.54         11.8698
   378.68         11.4727
   378.82         11.0478
   378.96         10.6183
   379.10         10.2126
   379.24         9.8618
   379.38         9.5929
   379.52         9.4219
   379.66         9.3509
   379.80         9.3713
   379.94         9.4659
   380.08         9.6098
   380.22         9.7720
   380.36         9.9205
   380.50         10.0265
   380.64         10.0663
   380.78         10.0201
   380.92         9.8734
   381.06         9.6208
   381.20         9.2696
   381.34         8.8380
   381.48         8.3513
   381.62         7.8388
   381.76         7.3292
   381.90         6.8459
   382.04         6.4048
   382.18         6.0162
   382.32         5.6877
   382.46         5.4244
   382.60         5.2251
   382.74         5.0811
   382.88         4.9817
   383.02         4.9218
   383.16         4.9047
   383.30         4.9391
   383.44         5.0329
   383.58         5.1904
   383.72         5.4107
   383.86         5.6862
   384.00         6.0033
   384.14         6.3461
   384.28         6.6971
   384.42         7.0365
   384.56         7.3413
   384.70         7.5888
   384.84         7.7604
   384.98         7.8475
   385.12         7.8542
   385.26         7.7957
   385.40         7.6954
   385.54         7.5816
   385.68         7.4827
   385.82         7.4194
   385.96         7.4006
   386.10         7.4248
   386.24         7.4856
   386.38         7.5751
   386.52         7.6841
   386.66         7.8007
   386.80         7.9118
   386.94         8.0049
   387.08         8.0720
   387.22         8.1111
   387.36         8.1247
   387.50         8.1182
   387.64         8.0994
   387.78         8.0784
   387.92         8.0666
   388.06         8.0754
   388.20         8.1138
   388.34         8.1866
   388.48         8.2950
   388.62         8.4382
   388.76         8.6138
   388.90         8.8165
   389.04         9.0362
   389.18         9.2572
   389.32         9.4629
   389.46         9.6413
   389.60         9.7881
   389.74         9.9068
   389.88         10.0067
   390.02         10.1022
   390.16         10.2106
   390.30         10.3491
   390.44         10.5293
   390.58         10.7512
   390.72         10.9991
   390.86         11.2443
   391.00         11.4532
   391.14         11.5956
   391.28         11.6482
   391.42         11.5952
   391.56         11.4276
   391.70         11.1431
   391.84         10.7460
   391.98         10.2485
   392.12         9.6713
   392.26         9.0412
   392.40         8.3885
   392.54         7.7442
   392.68         7.1383
   392.82         6.5982
   392.96         6.1459
   393.10         5.7973
   393.24         5.5627
   393.38         5.4494
   393.52         5.4632
   393.66         5.6077
   393.80         5.8812
   393.94         6.2732
   394.08         6.7633
   394.22         7.3241
   394.36         7.9242
   394.50         8.5312
   394.64         9.1131
   394.78         9.6405
   394.92         10.0858
   395.06         10.4244
   395.20         10.6364
   395.34         10.7072
   395.48         10.6274
   395.62         10.3946
   395.76         10.0179
   395.90         9.5220
   396.04         8.9467
   396.18         8.3420
   396.32         7.7621
   396.46         7.2610
   396.60         6.8882
   396.74         6.6842
   396.88         6.6772
   397.02         6.8784
   397.16         7.2802
   397.30         7.8594
   397.44         8.5806
   397.58         9.4008
   397.72         10.2744
   397.86         11.1581
   398.00         12.0130
   398.14         12.8074
   398.28         13.5190
   398.42         14.1362
   398.56         14.6565
   398.70         15.0849
   398.84         15.4328
   398.98         15.7153
   399.12         15.9469
   399.26         16.1373
   399.40         16.2899
   399.54         16.4052
   399.68         16.4871
   399.82         16.5444
   399.96         16.5893
   400.10         16.6355
   400.24         16.6955
   400.38         16.7786
   400.52         16.8905
   400.66         17.0327
   400.80         17.2024
   400.94         17.3935
   401.08         17.5976
   401.22         17.8052
   401.36         18.0073
   401.50         18.1951
   401.64         18.3578
   401.78         18.4796
   401.92         18.5406
   402.06         18.5239
   402.20         18.4223
   402.34         18.2421
   402.48         18.0013
   402.62         17.7271
   402.76         17.4507
   402.90         17.2006
   403.04         16.9968
   403.18         16.8455
   403.32         16.7381
   403.46         16.6570
   403.60         16.5872
   403.74         16.5236
   403.88         16.4694
   404.02         16.4292
   404.16         16.4051
   404.30         16.3945
   404.44         16.3924
   404.58         16.3967
   404.72         16.4122
   404.86         16.4475
   405.00         16.5056
   405.14         16.5764
   405.28         16.6381
   405.42         16.6662
   405.56         16.6408
   405.70         16.5522
   405.84         16.4009
   405.98         16.1987
   406.12         15.9723
   406.26         15.7574
   406.40         15.5844
   406.54         15.4689
   406.68         15.4150
   406.82         15.4248
   406.96         15.5015
   407.10         15.6462
   407.24         15.8552
   407.38         16.1215
   407.52         16.4374
   407.66         16.7964
   407.80         17.1949
   407.94         17.6302
   408.08         18.0954
   408.22         18.5744
   408.36         19.0401
   408.50         19.4583
   408.64         19.7958
   408.78         20.0269
   408.92         20.1338
   409.06         20.1074
   409.20         19.9531
   409.34         19.6935
   409.48         19.3637
   409.62         19.0026
   409.76         18.6464
   409.90         18.3275
   410.04         18.0759
   410.18         17.9160
   410.32         17.8614
   410.46         17.9114
   410.60         18.0522
   410.74         18.2609
   410.88         18.5094
   411.02         18.7687
   411.16         19.0144
   411.30         19.2303
   411.44         19.4075
   411.58         19.5423
   411.72         19.6349
   411.86         19.6854
   412.00         19.6899
   412.14         19.6416
   412.28         19.5358
   412.42         19.3764
   412.56         19.1786
   412.70         18.9660
   412.84         18.7626
   412.98         18.5835
   413.12         18.4312
   413.26         18.3009
   413.40         18.1888
   413.54         18.0957
   413.68         18.0245
   413.82         17.9766
   413.96         17.9492
   414.10         17.9348
   414.24         17.9234
   414.38         17.9060
   414.52         17.8777
   414.66         17.8415
   414.80         17.8108
   414.94         17.8062
   415.08         17.8478
   415.22         17.9461
   415.36         18.0973
   415.50         18.2859
   415.64         18.4913
   415.78         18.6953
   415.92         18.8851
   416.06         19.0495
   416.20         19.1744
   416.34         19.2444
   416.48         19.2478
   416.62         19.1812
   416.76         19.0510
   416.90         18.8722
   417.04         18.6644
   417.18         18.4501
   417.32         18.2513
   417.46         18.0841
   417.60         17.9546
   417.74         17.8608
   417.88         17.7964
   418.02         17.7556
   418.16         17.7355
   418.30         17.7345
   418.44         17.7480
   418.58         17.7649
   418.72         17.7715
   418.86         17.7562
   419.00         17.7130
   419.14         17.6419
   419.28         17.5490
   419.42         17.4471
   419.56         17.3520
   419.70         17.2800
   419.84         17.2455
   419.98         17.2613
   420.12         17.3367
   420.26         17.4766
   420.40         17.6780
   420.54         17.9294
   420.68         18.2115
   420.82         18.5004
   420.96         18.7682
   421.10         18.9829
   421.24         19.1110
   421.38         19.1225
   421.52         18.9952
   421.66         18.7232
   421.80         18.3238
   421.94         17.8353
   422.08         17.3065
   422.22         16.7840
   422.36         16.3067
   422.50         15.9063
   422.64         15.6078
   422.78         15.4288
   422.92         15.3780
   423.06         15.4563
   423.20         15.6586
   423.34         15.9719
   423.48         16.3695
   423.62         16.8096
   423.76         17.2399
   423.90         17.6103
   424.04         17.8848
   424.18         18.0483
   424.32         18.1052
   424.46         18.0726
   424.60         17.9707
   424.74         17.8150
   424.88         17.6160
   425.02         17.3875
   425.16         17.1540
   425.30         16.9490
   425.44         16.8058
   425.58         16.7482
   425.72         16.7824
   425.86         16.8930
   426.00         17.0446
   426.14         17.1905
   426.28         17.2865
   426.42         17.3049
   426.56         17.2421
   426.70         17.1154
   426.84         16.9533
   426.98         16.7863
   427.12         16.6431
   427.26         16.5472
   427.40         16.5134
   427.54         16.5475
   427.68         16.6474
   427.82         16.8001
   427.96         16.9800
   428.10         17.1541
   428.24         17.2902
   428.38         17.3617
   428.52         17.3522
   428.66         17.2570
   428.80         17.0830
   428.94         16.8459
   429.08         16.5657
   429.22         16.2606
   429.36         15.9411
   429.50         15.6088
   429.64         15.2602
   429.78         14.8933
   429.92         14.5127
   430.06         14.1315
   430.20         13.7724
   430.34         13.4691
   430.48         13.2668
   430.62         13.2155
   430.76         13.3571
   430.90         13.7112
   431.04         14.2681
   431.18         14.9884
   431.32         15.8079
   431.46         16.6504
   431.60         17.4458
   431.74         18.1443
   431.88         18.7171
   432.02         19.1535
   432.16         19.4598
   432.30         19.6588
   432.44         19.7842
   432.58         19.8721
   432.72         19.9513
   432.86         20.0387
   433.00         20.1401
   433.14         20.2533
   433.28         20.3681
   433.42         20.4696
   433.56         20.5434
   433.70         20.5813
   433.84         20.5827
   433.98         20.5539
   434.12         20.5089
   434.26         20.4685
   434.40         20.4536
   434.54         20.4767
   434.68         20.5391
   434.82         20.6336
   434.96         20.7482
   435.10         20.8717
   435.24         20.9970
   435.38         21.1248
   435.52         21.2634
   435.66         21.4230
   435.80         21.6096
   435.94         21.8203
   436.08         22.0415
   436.22         22.2503
   436.36         22.4170
   436.50         22.5118
   436.64         22.5134
   436.78         22.4159
   436.92         22.2260
   437.06         21.9517
   437.20         21.5955
   437.34         21.1590
   437.48         20.6540
   437.62         20.1069
   437.76         19.5523
   437.90         19.0257
   438.04         18.5601
   438.18         18.1838
   438.32         17.9195
   438.46         17.7844
   438.60         17.7888
   438.74         17.9326
   438.88         18.2011
   439.02         18.5658
   439.16         18.9861
   439.30         19.4113
   439.44         19.7853
   439.58         20.0593
   439.72         20.2048
   439.86         20.2241
   440.00         20.1495
   440.14         20.0282
   440.28         19.9021
   440.42         19.7997
   440.56         19.7420
   440.70         19.7499
   440.84         19.8415
   440.98         20.0247
   441.12         20.2923
   441.26         20.6230
   441.40         20.9850
   441.54         21.3431
   441.68         21.6676
   441.82         21.9384
   441.96         22.1461
   442.10         22.2929
   442.24         22.3874
   442.38         22.4382
   442.52         22.4521
   442.66         22.4376
   442.80         22.4039
   442.94         22.3600
   443.08         22.3178
   443.22         22.2923
   443.36         22.2989
   443.50         22.3467
   443.64         22.4356
   443.78         22.5611
   443.92         22.7176
   444.06         22.8956
   444.20         23.0783
   444.34         23.2407
   444.48         23.3534
   444.62         23.3897
   444.76         23.3322
   444.90         23.1763
   445.04         22.9336
   445.18         22.6315
   445.32         22.3058
   445.46         21.9907
   445.60         21.7153
   445.74         21.5054
   445.88         21.3846
   446.02         21.3722
   446.16         21.4773
   446.30         21.6951
   446.44         22.0086
   446.58         22.3921
   446.72         22.8129
   446.86         23.2331
   447.00         23.6179
   447.14         23.9434
   447.28         24.2004
   447.42         24.3922
   447.56         24.5285
   447.70         24.6204
   447.84         24.6777
   447.98         24.7081
   448.12         24.7167
   448.26         24.7063
   448.40         24.6790
   448.54         24.6413
   448.68         24.6042
   448.82         24.5789
   448.96         24.5731
   449.10         24.5935
   449.24         24.6460
   449.38         24.7348
   449.52         24.8622
   449.66         25.0316
   449.80         25.2450
   449.94         25.4983
   450.08         25.7766
   450.22         26.0553
   450.36         26.3083
   450.50         26.5143
   450.64         26.6586
   450.78         26.7353
   450.92         26.7473
   451.06         26.7047
   451.20         26.6197
   451.34         26.5004
   451.48         26.3458
   451.62         26.1502
   451.76         25.9096
   451.90         25.6242
   452.04         25.2969
   452.18         24.9323
   452.32         24.5390
   452.46         24.1356
   452.60         23.7507
   452.74         23.4158
   452.88         23.1592
   453.02         23.0043
   453.16         22.9657
   453.30         23.0456
   453.44         23.2325
   453.58         23.5014
   453.72         23.8168
   453.86         24.1415
   454.00         24.4427
   454.14         24.6955
   454.28         24.8867
   454.42         25.0169
   454.56         25.0974
   454.70         25.1460
   454.84         25.1839
   454.98         25.2328
   455.12         25.3091
   455.26         25.4175
   455.40         25.5515
   455.54         25.7008
   455.68         25.8568
   455.82         26.0084
   455.96         26.1427
   456.10         26.2504
   456.24         26.3291
   456.38         26.3822
   456.52         26.4152
   456.66         26.4302
   456.80         26.4252
   456.94         26.3985
   457.08         26.3523
   457.22         26.2891
   457.36         26.2096
   457.50         26.1152
   457.64         26.0101
   457.78         25.9022
   457.92         25.8011
   458.06         25.7173
   458.20         25.6583
   458.34         25.6256
   458.48         25.6163
   458.62         25.6262
   458.76         25.6502
   458.90         25.6799
   459.04         25.7046
   459.18         25.7135
   459.32         25.6997
   459.46         25.6655
   459.60         25.6237
   459.74         25.5917
   459.88         25.5847
   460.02         25.6131
   460.16         25.6820
   460.30         25.7908
   460.44         25.9315
   460.58         26.0919
   460.72         26.2590
   460.86         26.4222
   461.00         26.5737
   461.14         26.7071
   461.28         26.8177
   461.42         26.9032
   461.56         26.9655
   461.70         27.0103
   461.84         27.0436
   461.98         27.0714
   462.12         27.0981
   462.26         27.1236
   462.40         27.1425
   462.54         27.1454
   462.68         27.1226
   462.82         27.0697
   462.96         26.9884
   463.10         26.8843
   463.24         26.7621
   463.38         26.6248
   463.52         26.4737
   463.66         26.3096
   463.80         26.1357
   463.94         25.9596
   464.08         25.7909
   464.22         25.6381
   464.36         25.5073
   464.50         25.4049
   464.64         25.3397
   464.78         25.3210
   464.92         25.3536
   465.06         25.4351
   465.20         25.5547
   465.34         25.6956
   465.48         25.8363
   465.62         25.9527
   465.76         26.0232
   465.90         26.0353
   466.04         25.9875
   466.18         25.8889
   466.32         25.7576
   466.46         25.6162
   466.60         25.4857
   466.74         25.3809
   466.88         25.3101
   467.02         25.2784
   467.16         25.2882
   467.30         25.3374
   467.44         25.4163
   467.58         25.5077
   467.72         25.5922
   467.86         25.6544
   468.00         25.6857
   468.14         25.6862
   468.28         25.6664
   468.42         25.6423
   468.56         25.6252
   468.70         25.6161
   468.84         25.6077
   468.98         25.5878
   469.12         25.5420
   469.26         25.4579
   469.40         25.3305
   469.54         25.1633
   469.68         24.9664
   469.82         24.7546
   469.96         24.5458
   470.10         24.3559
   470.24         24.1972
   470.38         24.0802
   470.52         24.0155
   470.66         24.0143
   470.80         24.0850
   470.94         24.2292
   471.08         24.4380
   471.22         24.6951
   471.36         24.9798
   471.50         25.2700
   471.64         25.5432
   471.78         25.7787
   471.92         25.9617
   472.06         26.0833
   472.20         26.1401
   472.34         26.1344
   472.48         26.0736
   472.62         25.9684
   472.76         25.8324
   472.90         25.6827
   473.04         25.5395
   473.18         25.4237
   473.32         25.3518
   473.46         25.3321
   473.60         25.3655
   473.74         25.4470
   473.88         25.5669
   474.02         25.7111
   474.16         25.8620
   474.30         26.0028
   474.44         26.1221
   474.58         26.2140
   474.72         26.2762
   474.86         26.3078
   475.00         26.3080
   475.14         26.2749
   475.28         26.2076
   475.42         26.1075
   475.56         25.9783
   475.70         25.8275
   475.84         25.6660
   475.98         25.5056
   476.12         25.3577
   476.26         25.2335
   476.40         25.1429
   476.54         25.0933
   476.68         25.0885
   476.82         25.1277
   476.96         25.2069
   477.10         25.3180
   477.24         25.4483
   477.38         25.5822
   477.52         25.7034
   477.66         25.7959
   477.80         25.8480
   477.94         25.8564
   478.08         25.8273
   478.22         25.7753
   478.36         25.7191
   478.50         25.6766
   478.64         25.6612
   478.78         25.6797
   478.92         25.7329
   479.06         25.8161
   479.20         25.9217
   479.34         26.0396
   479.48         26.1568
   479.62         26.2591
   479.76         26.3342
   479.90         26.3750
   480.04         26.3813
   480.18         26.3578
   480.32         26.3132
   480.46         26.2593
   480.60         26.2099
   480.74         26.1772
   480.88         26.1681
   481.02         26.1833
   481.16         26.2173
   481.30         26.2596
   481.44         26.2987
   481.58         26.3256
   481.72         26.3346
   481.86         26.3219
   482.00         26.2837
   482.14         26.2185
   482.28         26.1312
   482.42         26.0331
   482.56         25.9363
   482.70         25.8490
   482.84         25.7759
   482.98         25.7205
   483.12         25.6861
   483.26         25.6746
   483.40         25.6870
   483.54         25.7221
   483.68         25.7762
   483.82         25.8441
   483.96         25.9206
   484.10         26.0000
   484.24         26.0759
   484.38         26.1400
   484.52         26.1854
   484.66         26.2047
   484.80         26.1857
   484.94         26.1123
   485.08         25.9697
   485.22         25.7525
   485.36         25.4715
   485.50         25.1512
   485.64         24.8222
   485.78         24.5117
   485.92         24.2360
   486.06         24.0002
   486.20         23.8052
   486.34         23.6534
   486.48         23.5499
   486.62         23.4981
   486.76         23.4979
   486.90         23.5471
   487.04         23.6425
   487.18         23.7794
   487.32         23.9468
   487.46         24.1277
   487.60         24.3069
   487.74         24.4736
   487.88         24.6160
   488.02         24.7181
   488.16         24.7652
   488.30         24.7546
   488.44         24.6987
   488.58         24.6202
   488.72         24.5509
   488.86         24.5266
   489.00         24.5745
   489.14         24.7047
   489.28         24.9118
   489.42         25.1814
   489.56         25.4935
   489.70         25.8223
   489.84         26.1364
   489.98         26.4029
   490.12         26.5975
   490.26         26.7111
   490.40         26.7478
   490.54         26.7214
   490.68         26.6499
   490.82         26.5459
   490.96         26.4105
   491.10         26.2389
   491.24         26.0292
   491.38         25.7867
   491.52         25.5251
   491.66         25.2663
   491.80         25.0374
   491.94         24.8664
   492.08         24.7755
   492.22         24.7750
   492.36         24.8616
   492.50         25.0228
   492.64         25.2395
   492.78         25.4845
   492.92         25.7250
   493.06         25.9320
   493.20         26.0870
   493.34         26.1803
   493.48         26.2104
   493.62         26.1923
   493.76         26.1562
   493.90         26.1341
   494.04         26.1494
   494.18         26.2148
   494.32         26.3313
   494.46         26.4835
   494.60         26.6402
   494.74         26.7632
   494.88         26.8220
   495.02         26.8041
   495.16         26.7136
   495.30         26.5650
   495.44         26.3784
   495.58         26.1779
   495.72         25.9872
   495.86         25.8244
   496.00         25.6995
   496.14         25.6193
   496.28         25.5925
   496.42         25.6248
   496.56         25.7119
   496.70         25.8371
   496.84         25.9759
   496.98         26.0992
   497.12         26.1763
   497.26         26.1807
   497.40         26.1008
   497.54         25.9446
   497.68         25.7309
   497.82         25.4793
   497.96         25.2072
   498.10         24.9317
   498.24         24.6738
   498.38         24.4591
   498.52         24.3127
   498.66         24.2524
   498.80         24.2816
   498.94         24.3850
   499.08         24.5308
   499.22         24.6785
   499.36         24.7911
   499.50         24.8417
   499.64         24.8126
   499.78         24.6969
   499.92         24.5050
   500.06         24.2632
   500.20         24.0013
   500.34         23.7417
   500.48         23.4992
   500.62         23.2868
   500.76         23.1161
   500.90         22.9946
   501.04         22.9240
   501.18         22.8990
   501.32         22.9097
   501.46         22.9453
   501.60         22.9972
   501.74         23.0607
   501.88         23.1364
   502.02         23.2296
   502.16         23.3464
   502.30         23.4896
   502.44         23.6577
   502.58         23.8431
   502.72         24.0287
   502.86         24.1903
   503.00         24.3032
   503.14         24.3495
   503.28         24.3231
   503.42         24.2289
   503.56         24.0824
   503.70         23.9054
   503.84         23.7179
   503.98         23.5354
   504.12         23.3705
   504.26         23.2342
   504.40         23.1378
   504.54         23.0928
   504.68         23.1078
   504.82         23.1843
   504.96         23.3153
   505.10         23.4863
   505.24         23.6788
   505.38         23.8732
   505.52         24.0506
   505.66         24.1954
   505.80         24.2994
   505.94         24.3599
   506.08         24.3746
   506.22         24.3407
   506.36         24.2554
   506.50         24.1196
   506.64         23.9432
   506.78         23.7442
   506.92         23.5419
   507.06         23.3497
   507.20         23.1762
   507.34         23.0290
   507.48         22.9170
   507.62         22.8480
   507.76         22.8259
   507.90         22.8496
   508.04         22.9135
   508.18         23.0122
   508.32         23.1413
   508.46         23.2942
   508.60         23.4591
   508.74         23.6203
   508.88         23.7603
   509.02         23.8626
   509.16         23.9158
   509.30         23.9155
   509.44         23.8624
   509.58         23.7613
   509.72         23.6219
   509.86         23.4587
   510.00         23.2882
   510.14         23.1266
   510.28         22.9880
   510.42         22.8831
   510.56         22.8198
   510.70         22.8027
   510.84         22.8328
   510.98         22.9034
   511.12         22.9994
   511.26         23.1021
   511.40         23.1938
   511.54         23.2601
   511.68         23.2923
   511.82         23.2853
   511.96         23.2361
   512.10         23.1458
   512.24         23.0211
   512.38         22.8738
   512.52         22.7204
   512.66         22.5783
   512.80         22.4594
   512.94         22.3692
   513.08         22.3077
   513.22         22.2700
   513.36         22.2488
   513.50         22.2367
   513.64         22.2260
   513.78         22.2093
   513.92         22.1818
   514.06         22.1421
   514.20         22.0922
   514.34         22.0359
   514.48         21.9781
   514.62         21.9273
   514.76         21.8946
   514.90         21.8885
   515.04         21.9113
   515.18         21.9570
   515.32         22.0107
   515.46         22.0487
   515.60         22.0393
   515.74         21.9498
   515.88         21.7545
   516.02         21.4356
   516.16         20.9819
   516.30         20.3957
   516.44         19.7033
   516.58         18.9538
   516.72         18.2094
   516.86         17.5324
   517.00         16.9715
   517.14         16.5524
   517.28         16.2774
   517.42         16.1338
   517.56         16.1052
   517.70         16.1755
   517.84         16.3288
   517.98         16.5470
   518.12         16.8105
   518.26         17.1053
   518.40         17.4297
   518.54         17.7912
   518.68         18.1988
   518.82         18.6612
   518.96         19.1851
   519.10         19.7659
   519.24         20.3783
   519.38         20.9758
   519.52         21.4989
   519.66         21.8906
   519.80         22.1158
   519.94         22.1767
   520.08         22.1115
   520.22         21.9758
   520.36         21.8193
   520.50         21.6770
   520.64         21.5754
   520.78         21.5419
   520.92         21.6052
   521.06         21.7869
   521.20         22.0905
   521.34         22.4946
   521.48         22.9551
   521.62         23.4159
   521.76         23.8237
   521.90         24.1401
   522.04         24.3426
   522.18         24.4255
   522.32         24.4046
   522.46         24.3167
   522.60         24.2099
   522.74         24.1298
   522.88         24.1085
   523.02         24.1643
   523.16         24.3065
   523.30         24.5380
   523.44         24.8517
   523.58         25.2252
   523.72         25.6213
   523.86         25.9973
   524.00         26.3159
   524.14         26.5539
   524.28         26.7042
   524.42         26.7735
   524.56         26.7771
   524.70         26.7331
   524.84         26.6606
   524.98         26.5771
   525.12         26.4899
   525.26         26.3918
   525.40         26.2633
   525.54         26.0803
   525.68         25.8205
   525.82         25.4652
   525.96         25.0070
   526.10         24.4595
   526.24         23.8559
   526.38         23.2423
   526.52         22.6727
   526.66         22.2048
   526.80         21.8906
   526.94         21.7642
   527.08         21.8355
   527.22         22.0912
   527.36         22.5007
   527.50         23.0215
   527.64         23.6051
   527.78         24.2047
   527.92         24.7822
   528.06         25.3118
   528.20         25.7788
   528.34         26.1752
   528.48         26.4968
   528.62         26.7442
   528.76         26.9202
   528.90         27.0265
   529.04         27.0644
   529.18         27.0400
   529.32         26.9657
   529.46         26.8566
   529.60         26.7289
   529.74         26.6030
   529.88         26.5048
   530.02         26.4614
   530.16         26.4926
   530.30         26.6040
   530.44         26.7857
   530.58         27.0178
   530.72         27.2745
   530.86         27.5270
   531.00         27.7460
   531.14         27.9039
   531.28         27.9783
   531.42         27.9558
   531.56         27.8294
   531.70         27.5949
   531.84         27.2578
   531.98         26.8401
   532.12         26.3767
   532.26         25.9083
   532.40         25.4778
   532.54         25.1255
   532.68         24.8816
   532.82         24.7597
   532.96         24.7559
   533.10         24.8567
   533.24         25.0455
   533.38         25.3015
   533.52         25.5966
   533.66         25.8977
   533.80         26.1723
   533.94         26.3970
   534.08         26.5610
   534.22         26.6666
   534.36         26.7306
   534.50         26.7831
   534.64         26.8554
   534.78         26.9674
   534.92         27.1230
   535.06         27.3132
   535.20         27.5204
   535.34         27.7219
   535.48         27.8945
   535.62         28.0207
   535.76         28.0879
   535.90         28.0809
   536.04         27.9835
   536.18         27.7911
   536.32         27.5186
   536.46         27.1985
   536.60         26.8712
   536.74         26.5745
   536.88         26.3395
   537.02         26.1874
   537.16         26.1275
   537.30         26.1562
   537.44         26.2619
   537.58         26.4291
   537.72         26.6380
   537.86         26.8646
   538.00         27.0810
   538.14         27.2589
   538.28         27.3741
   538.42         27.4087
   538.56         27.3543
   538.70         27.2188
   538.84         27.0256
   538.98         26.8025
   539.12         26.5701
   539.26         26.3366
   539.40         26.0996
   539.54         25.8550
   539.68         25.6050
   539.82         25.3585
   539.96         25.1289
   540.10         24.9318
   540.24         24.7814
   540.38         24.6878
   540.52         24.6591
   540.66         24.7021
   540.80         24.8203
   540.94         25.0104
   541.08         25.2624
   541.22         25.5621
   541.36         25.8927
   541.50         26.2350
   541.64         26.5640
   541.78         26.8474
   541.92         27.0536
   542.06         27.1645
   542.20         27.1793
   542.34         27.1072
   542.48         26.9632
   542.62         26.7709
   542.76         26.5619
   542.90         26.3704
   543.04         26.2242
   543.18         26.1408
   543.32         26.1242
   543.46         26.1628
   543.60         26.2347
   543.74         26.3193
   543.88         26.4043
   544.02         26.4833
   544.16         26.5528
   544.30         26.6071
   544.44         26.6382
   544.58         26.6434
   544.72         26.6300
   544.86         26.6106
   545.00         26.5986
   545.14         26.6064
   545.28         26.6432
   545.42         26.7114
   545.56         26.8050
   545.70         26.9120
   545.84         27.0198
   545.98         27.1178
   546.12         27.1989
   546.26         27.2631
   546.40         27.3152
   546.54         27.3558
   546.68         27.3771
   546.82         27.3688
   546.96         27.3234
   547.10         27.2407
   547.24         27.1314
   547.38         27.0143
   547.52         26.9086
   547.66         26.8272
   547.80         26.7791
   547.94         26.7731
   548.08         26.8160
   548.22         26.9069
   548.36         27.0373
   548.50         27.1930
   548.64         27.3564
   548.78         27.5108
   548.92         27.6442
   549.06         27.7485
   549.20         27.8177
   549.34         27.8513
   549.48         27.8548
   549.62         27.8356
   549.76         27.8016
   549.90         27.7637
   550.04         27.7313
   550.18         27.7056
   550.32         27.6807
   550.46         27.6519
   550.60         27.6178
   550.74         27.5786
   550.88         27.5358
   551.02         27.4942
   551.16         27.4612
   551.30         27.4453
   551.44         27.4528
   551.58         27.4831
   551.72         27.5256
   551.86         27.5649
   552.00         27.5907
   552.14         27.6013
   552.28         27.5997
   552.42         27.5911
   552.56         27.5802
   552.70         27.5695
   552.84         27.5610
   552.98         27.5610
   553.12         27.5786
   553.26         27.6204
   553.40         27.6878
   553.54         27.7773
   553.68         27.8827
   553.82         27.9970
   553.96         28.1137
   554.10         28.2255
   554.24         28.3241
   554.38         28.4040
   554.52         28.4654
   554.66         28.5139
   554.80         28.5540
   554.94         28.5857
   555.08         28.6050
   555.22         28.6056
   555.36         28.5813
   555.50         28.5262
   555.64         28.4369
   555.78         28.3114
   555.92         28.1500
   556.06         27.9563
   556.20         27.7379
   556.34         27.5061
   556.48         27.2746
   556.62         27.0571
   556.76         26.8659
   556.90         26.7120
   557.04         26.6041
   557.18         26.5473
   557.32         26.5409
   557.46         26.5779
   557.60         26.6415
   557.74         26.7057
   557.88         26.7439
   558.02         26.7371
   558.16         26.6774
   558.30         26.5657
   558.44         26.4080
   558.58         26.2169
   558.72         26.0115
   558.86         25.8144
   559.00         25.6471
   559.14         25.5253
   559.28         25.4562
   559.42         25.4413
   559.56         25.4800
   559.70         25.5716
   559.84         25.7134
   559.98         25.8998
   560.12         26.1216
   560.26         26.3665
   560.40         26.6188
   560.54         26.8608
   560.68         27.0745
   560.82         27.2449
   560.96         27.3609
   561.10         27.4177
   561.24         27.4173
   561.38         27.3644
   561.52         27.2643
   561.66         27.1264
   561.80         26.9697
   561.94         26.8220
   562.08         26.7141
   562.22         26.6710
   562.36         26.7044
   562.50         26.8100
   562.64         26.9713
   562.78         27.1640
   562.92         27.3612
   563.06         27.5383
   563.20         27.6794
   563.34         27.7804
   563.48         27.8447
   563.62         27.8769
   563.76         27.8797
   563.90         27.8545
   564.04         27.8052
   564.18         27.7423
   564.32         27.6807
   564.46         27.6324
   564.60         27.6006
   564.74         27.5789
   564.88         27.5548
   565.02         27.5149
   565.16         27.4507
   565.30         27.3602
   565.44         27.2490
   565.58         27.1298
   565.72         27.0164
   565.86         26.9199
   566.00         26.8480
   566.14         26.8062
   566.28         26.7983
   566.42         26.8265
   566.56         26.8921
   566.70         26.9957
   566.84         27.1337
   566.98         27.2943
   567.12         27.4609
   567.26         27.6180
   567.40         27.7530
   567.54         27.8567
   567.68         27.9243
   567.82         27.9552
   567.96         27.9519
   568.10         27.9208
   568.24         27.8703
   568.38         27.8084
   568.52         27.7423
   568.66         27.6786
   568.80         27.6232
   568.94         27.5801
   569.08         27.5495
   569.22         27.5263
   569.36         27.5016
   569.50         27.4666
   569.64         27.4138
   569.78         27.3382
   569.92         27.2356
   570.06         27.1028
   570.20         26.9409
   570.34         26.7578
   570.48         26.5698
   570.62         26.3969
   570.76         26.2590
   570.90         26.1717
   571.04         26.1456
   571.18         26.1852
   571.32         26.2895
   571.46         26.4529
   571.60         26.6649
   571.74         26.9108
   571.88         27.1731
   572.02         27.4346
   572.16         27.6789
   572.30         27.8901
   572.44         28.0558
   572.58         28.1709
   572.72         28.2381
   572.86         28.2652
   573.00         28.2622
   573.14         28.2401
   573.28         28.2090
   573.42         28.1773
   573.56         28.1519
   573.70         28.1360
   573.84         28.1303
   573.98         28.1331
   574.12         28.1416
   574.26         28.1509
   574.40         28.1556
   574.54         28.1525
   574.68         28.1431
   574.82         28.1326
   574.96         28.1252
   575.10         28.1212
   575.24         28.1176
   575.38         28.1113
   575.52         28.1030
   575.66         28.0984
   575.80         28.1031
   575.94         28.1193
   576.08         28.1458
   576.22         28.1794
   576.36         28.2177
   576.50         28.2599
   576.64         28.3069
   576.78         28.3588
   576.92         28.4132
   577.06         28.4656
   577.20         28.5092
   577.34         28.5339
   577.48         28.5251
   577.62         28.4691
   577.76         28.3631
   577.90         28.2159
   578.04         28.0428
   578.18         27.8607
   578.32         27.6860
   578.46         27.5342
   578.60         27.4190
   578.74         27.3528
   578.88         27.3444
   579.02         27.3970
   579.16         27.5064
   579.30         27.6596
   579.44         27.8359
   579.58         28.0116
   579.72         28.1670
   579.86         28.2894
   580.00         28.3744
   580.14         28.4249
   580.28         28.4494
   580.42         28.4581
   580.56         28.4591
   580.70         28.4589
   580.84         28.4664
   580.98         28.4896
   581.12         28.5307
   581.26         28.5871
   581.40         28.6537
   581.54         28.7246
   581.68         28.7926
   581.82         28.8521
   581.96         28.8992
   582.10         28.9326
   582.24         28.9532
   582.38         28.9634
   582.52         28.9651
   582.66         28.9592
   582.80         28.9466
   582.94         28.9295
   583.08         28.9132
   583.22         28.9036
   583.36         28.9052
   583.50         28.9178
   583.64         28.9364
   583.78         28.9556
   583.92         28.9722
   584.06         28.9840
   584.20         28.9879
   584.34         28.9808
   584.48         28.9590
   584.62         28.9151
   584.76         28.8413
   584.90         28.7344
   585.04         28.5991
   585.18         28.4453
   585.32         28.2866
   585.46         28.1377
   585.60         28.0114
   585.74         27.9180
   585.88         27.8639
   586.02         27.8520
   586.16         27.8823
   586.30         27.9522
   586.44         28.0570
   586.58         28.1881
   586.72         28.3319
   586.86         28.4739
   587.00         28.6004
   587.14         28.6981
   587.28         28.7559
   587.42         28.7676
   587.56         28.7273
   587.70         28.6195
   587.84         28.4167
   587.98         28.0938
   588.12         27.6438
   588.26         27.0773
   588.40         26.4130
   588.54         25.6768
   588.68         24.9080
   588.82         24.1599
   588.96         23.4900
   589.10         22.9531
   589.24         22.5932
   589.38         22.4396
   589.52         22.5040
   589.66         22.7783
   589.80         23.2355
   589.94         23.8326
   590.08         24.5152
   590.22         25.2210
   590.36         25.8897
   590.50         26.4788
   590.64         26.9718
   590.78         27.3694
   590.92         27.6754
   591.06         27.8957
   591.20         28.0460
   591.34         28.1506
   591.48         28.2306
   591.62         28.2974
   591.76         28.3551
   591.90         28.4045
   592.04         28.4461
   592.18         28.4823
   592.32         28.5134
   592.46         28.5385
   592.60         28.5573
   592.74         28.5703
   592.88         28.5780
   593.02         28.5818
   593.16         28.5819
   593.30         28.5785
   593.44         28.5710
   593.58         28.5560
   593.72         28.5272
   593.86         28.4809
   594.00         28.4183
   594.14         28.3424
   594.28         28.2567
   594.42         28.1657
   594.56         28.0744
   594.70         27.9878
   594.84         27.9100
   594.98         27.8440
   595.12         27.7930
   595.26         27.7592
   595.40         27.7399
   595.54         27.7294
   595.68         27.7236
   595.82         27.7229
   595.96         27.7320
   596.10         27.7545
   596.24         27.7893
   596.38         27.8322
   596.52         27.8778
   596.66         27.9186
   596.80         27.9460
   596.94         27.9530
   597.08         27.9365
   597.22         27.8965
   597.36         27.8355
   597.50         27.7572
   597.64         27.6662
   597.78         27.5697
   597.92         27.4766
   598.06         27.3963
   598.20         27.3386
   598.34         27.3120
   598.48         27.3201
   598.62         27.3597
   598.76         27.4218
   598.90         27.4930
   599.04         27.5581
   599.18         27.6041
   599.32         27.6224
   599.46         27.6102
   599.60         27.5687
   599.74         27.5017
   599.88         27.4161
   600.02         27.3217
   600.16         27.2300
   600.30         27.1531
   600.44         27.1005
   600.58         27.0740
   600.72         27.0691
   600.86         27.0776
   601.00         27.0892
   601.14         27.0957
   601.28         27.0922
   601.42         27.0753
   601.56         27.0452
   601.70         27.0052
   601.84         26.9636
   601.98         26.9317
   602.12         26.9208
   602.26         26.9391
   602.40         26.9913
   602.54         27.0782
   602.68         27.1949
   602.82         27.3319
   602.96         27.4756
   603.10         27.6117
   603.24         27.7278
   603.38         27.8169
   603.52         27.8768
   603.66         27.9104
   603.80         27.9241
   603.94         27.9224
   604.08         27.9078
   604.22         27.8823
   604.36         27.8472
   604.50         27.8048
   604.64         27.7591
   604.78         27.7143
   604.92         27.6736
   605.06         27.6396
   605.20         27.6137
   605.34         27.5951
   605.48         27.5825
   605.62         27.5759
   605.76         27.5773
   605.90         27.5899
   606.04         27.6148
   606.18         27.6500
   606.32         27.6898
   606.46         27.7251
   606.60         27.7460
   606.74         27.7444
   606.88         27.7169
   607.02         27.6645
   607.16         27.5920
   607.30         27.5066
   607.44         27.4153
   607.58         27.3245
   607.72         27.2400
   607.86         27.1660
   608.00         27.1072
   608.14         27.0679
   608.28         27.0503
   608.42         27.0519
   608.56         27.0662
   608.70         27.0832
   608.84         27.0907
   608.98         27.0765
   609.12         27.0321
   609.26         26.9574
   609.40         26.8600
   609.54         26.7521
   609.68         26.6466
   609.82         26.5557
   609.96         26.4894
   610.10         26.4554
   610.24         26.4574
   610.38         26.4929
   610.52         26.5547
   610.66         26.6328
   610.80         26.7118
   610.94         26.7718
   611.08         26.7942
   611.22         26.7695
   611.36         26.6992
   611.50         26.5914
   611.64         26.4609
   611.78         26.3263
   611.92         26.2069
   612.06         26.1178
   612.20         26.0664
   612.34         26.0501
   612.48         26.0566
   612.62         26.0711
   612.76         26.0847
   612.90         26.0923
   613.04         26.0902
   613.18         26.0769
   613.32         26.0536
   613.46         26.0254
   613.60         26.0030
   613.74         26.0011
   613.88         26.0325
   614.02         26.1008
   614.16         26.2013
   614.30         26.3255
   614.44         26.4621
   614.58         26.5999
   614.72         26.7252
   614.86         26.8187
   615.00         26.8578
   615.14         26.8268
   615.28         26.7259
   615.42         26.5677
   615.56         26.3670
   615.70         26.1364
   615.84         25.8877
   615.98         25.6363
   616.12         25.4022
   616.26         25.2068
   616.40         25.0670
   616.54         24.9949
   616.68         24.9990
   616.82         25.0818
   616.96         25.2389
   617.10         25.4582
   617.24         25.7212
   617.38         26.0036
   617.52         26.2797
   617.66         26.5287
   617.80         26.7381
   617.94         26.9005
   618.08         27.0100
   618.22         27.0633
   618.36         27.0635
   618.50         27.0227
   618.64         26.9612
   618.78         26.8997
   618.92         26.8522
   619.06         26.8275
   619.20         26.8324
   619.34         26.8709
   619.48         26.9417
   619.62         27.0387
   619.76         27.1530
   619.90         27.2739
   620.04         27.3891
   620.18         27.4844
   620.32         27.5467
   620.46         27.5674
   620.60         27.5453
   620.74         27.4860
   620.88         27.3994
   621.02         27.2950
   621.16         27.1810
   621.30         27.0631
   621.44         26.9455
   621.58         26.8335
   621.72         26.7334
   621.86         26.6480
   622.00         26.5732
   622.14         26.5035
   622.28         26.4384
   622.42         26.3808
   622.56         26.3339
   622.70         26.2982
   622.84         26.2728
   622.98         26.2572
   623.12         26.2514
   623.26         26.2536
   623.40         26.2586
   623.54         26.2612
   623.68         26.2589
   623.82         26.2526
   623.96         26.2441
   624.10         26.2330
   624.24         26.2159
   624.38         26.1876
   624.52         26.1439
   624.66         26.0842
   624.80         26.0132
   624.94         25.9372
   625.08         25.8581
   625.22         25.7732
   625.36         25.6797
   625.50         25.5808
   625.64         25.4853
   625.78         25.4040
   625.92         25.3471
   626.06         25.3243
   626.20         25.3433
   626.34         25.4073
   626.48         25.5120
   626.62         25.6454
   626.76         25.7910
   626.90         25.9329
   627.04         26.0572
   627.18         26.1531
   627.32         26.2161
   627.46         26.2487
   627.60         26.2587
   627.74         26.2568
   627.88         26.2540
   628.02         26.2614
   628.16         26.2884
   628.30         26.3386
   628.44         26.4094
   628.58         26.4945
   628.72         26.5843
   628.86         26.6672
   629.00         26.7299
   629.14         26.7609
   629.28         26.7546
   629.42         26.7134
   629.56         26.6455
   629.70         26.5628
   629.84         26.4800
   629.98         26.4112
   630.12         26.3658
   630.26         26.3466
   630.40         26.3491
   630.54         26.3636
   630.68         26.3782
   630.82         26.3821
   630.96         26.3686
   631.10         26.3359
   631.24         26.2861
   631.38         26.2259
   631.52         26.1658
   631.66         26.1172
   631.80         26.0898
   631.94         26.0913
   632.08         26.1242
   632.22         26.1852
   632.36         26.2650
   632.50         26.3497
   632.64         26.4257
   632.78         26.4831
   632.92         26.5163
   633.06         26.5238
   633.20         26.5076
   633.34         26.4732
   633.48         26.4313
   633.62         26.3959
   633.76         26.3785
   633.90         26.3853
   634.04         26.4184
   634.18         26.4754
   634.32         26.5485
   634.46         26.6274
   634.60         26.7030
   634.74         26.7668
   634.88         26.8093
   635.02         26.8209
   635.16         26.7957
   635.30         26.7351
   635.44         26.6462
   635.58         26.5386
   635.72         26.4243
   635.86         26.3157
   636.00         26.2262
   636.14         26.1686
   636.28         26.1508
   636.42         26.1741
   636.56         26.2344
   636.70         26.3233
   636.84         26.4275
   636.98         26.5320
   637.12         26.6251
   637.26         26.6993
   637.40         26.7501
   637.54         26.7748
   637.68         26.7745
   637.82         26.7549
   637.96         26.7239
   638.10         26.6862
   638.24         26.6424
   638.38         26.5921
   638.52         26.5358
   638.66         26.4742
   638.80         26.4052
   638.94         26.3250
   639.08         26.2328
   639.22         26.1318
   639.36         26.0284
   639.50         25.9297
   639.64         25.8422
   639.78         25.7709
   639.92         25.7168
   640.06         25.6779
   640.20         25.6521
   640.34         25.6380
   640.48         25.6342
   640.62         25.6366
   640.76         25.6400
   640.90         25.6405
   641.04         25.6379
   641.18         25.6340
   641.32         25.6306
   641.46         25.6299
   641.60         25.6369
   641.74         25.6565
   641.88         25.6880
   642.02         25.7260
   642.16         25.7634
   642.30         25.7967
   642.44         25.8256
   642.58         25.8501
   642.72         25.8681
   642.86         25.8775
   643.00         25.8783
   643.14         25.8731
   643.28         25.8669
   643.42         25.8655
   643.56         25.8738
   643.70         25.8939
   643.84         25.9237
   643.98         25.9577
   644.12         25.9901
   644.26         26.0172
   644.40         26.0359
   644.54         26.0453
   644.68         26.0478
   644.82         26.0469
   644.96         26.0438
   645.10         26.0337
   645.24         26.0102
   645.38         25.9724
   645.52         25.9266
   645.66         25.8819
   645.80         25.8439
   645.94         25.8136
   646.08         25.7895
   646.22         25.7692
   646.36         25.7509
   646.50         25.7369
   646.64         25.7337
   646.78         25.7475
   646.92         25.7804
   647.06         25.8297
   647.20         25.8915
   647.34         25.9615
   647.48         26.0359
   647.62         26.1122
   647.76         26.1883
   647.90         26.2625
   648.04         26.3288
   648.18         26.3744
   648.32         26.3833
   648.46         26.3439
   648.60         26.2534
   648.74         26.1171
   648.88         25.9460
   649.02         25.7568
   649.16         25.5705
   649.30         25.4092
   649.44         25.2916
   649.58         25.2312
   649.72         25.2370
   649.86         25.3119
   650.00         25.4517
   650.14         25.6449
   650.28         25.8721
   650.42         26.1096
   650.56         26.3336
   650.70         26.5266
   650.84         26.6806
   650.98         26.7981
   651.12         26.8880
   651.26         26.9604
   651.40         27.0224
   651.54         27.0773
   651.68         27.1258
   651.82         27.1659
   651.96         27.1942
   652.10         27.2064
   652.24         27.2009
   652.38         27.1787
   652.52         27.1432
   652.66         27.0990
   652.80         27.0518
   652.94         27.0078
   653.08         26.9733
   653.22         26.9530
   653.36         26.9484
   653.50         26.9564
   653.64         26.9704
   653.78         26.9829
   653.92         26.9862
   654.06         26.9733
   654.20         26.9389
   654.34         26.8808
   654.48         26.7993
   654.62         26.6978
   654.76         26.5793
   654.90         26.4414
   655.04         26.2746
   655.18         26.0678
   655.32         25.8191
   655.46         25.5397
   655.60         25.2469
   655.74         24.9599
   655.88         24.6987
   656.02         24.4837
   656.16         24.3331
   656.30         24.2606
   656.44         24.2746
   656.58         24.3760
   656.72         24.5570
   656.86         24.8019
   657.00         25.0886
   657.14         25.3934
   657.28         25.6918
   657.42         25.9613
   657.56         26.1852
   657.70         26.3588
   657.84         26.4885
   657.98         26.5848
   658.12         26.6531
   658.26         26.6935
   658.40         26.7076
   658.54         26.7003
   658.68         26.6789
   658.82         26.6508
   658.96         26.6244
   659.10         26.6075
   659.24         26.6048
   659.38         26.6165
   659.52         26.6390
   659.66         26.6673
   659.80         26.6969
   659.94         26.7249
   660.08         26.7488
   660.22         26.7655
   660.36         26.7717
   660.50         26.7645
   660.64         26.7445
   660.78         26.7166
   660.92         26.6891
   661.06         26.6697
   661.20         26.6617
   661.34         26.6641
   661.48         26.6730
   661.62         26.6831
   661.76         26.6889
   661.90         26.6845
   662.04         26.6648
   662.18         26.6267
   662.32         26.5716
   662.46         26.5059
   662.60         26.4368
   662.74         26.3698
   662.88         26.3082
   663.02         26.2539
   663.16         26.2069
   663.30         26.1657
   663.44         26.1288
   663.58         26.0957
   663.72         26.0663
   663.86         26.0397
   664.00         26.0163
   664.14         25.9965
   664.28         25.9814
   664.42         25.9723
   664.56         25.9702
   664.70         25.9764
   664.84         25.9917
   664.98         26.0140
   665.12         26.0379
   665.26         26.0554
   665.40         26.0598
   665.54         26.0470
   665.68         26.0173
   665.82         25.9758
   665.96         25.9301
   666.10         25.8881
   666.24         25.8556
   666.38         25.8351
   666.52         25.8256
   666.66         25.8233
   666.80         25.8243
   666.94         25.8262
   667.08         25.8270
   667.22         25.8242
   667.36         25.8165
   667.50         25.8036
   667.64         25.7870
   667.78         25.7708
   667.92         25.7618
   668.06         25.7652
   668.20         25.7826
   668.34         25.8112
   668.48         25.8449
   668.62         25.8752
   668.76         25.8946
   668.90         25.8992
   669.04         25.8882
   669.18         25.8620
   669.32         25.8248
   669.46         25.7835
   669.60         25.7456
   669.74         25.7161
   669.88         25.6974
   670.02         25.6905
   670.16         25.6935
   670.30         25.7012
   670.44         25.7057
   670.58         25.6977
   670.72         25.6694
   670.86         25.6182
   671.00         25.5479
   671.14         25.4666
   671.28         25.3843
   671.42         25.3113
   671.56         25.2560
   671.70         25.2230
   671.84         25.2140
   671.98         25.2285
   672.12         25.2639
   672.26         25.3164
   672.40         25.3815
   672.54         25.4537
   672.68         25.5271
   672.82         25.5956
   672.96         25.6527
   673.10         25.6933
   673.24         25.7164
   673.38         25.7250
   673.52         25.7236
   673.66         25.7154
   673.80         25.6998
   673.94         25.6752
   674.08         25.6423
   674.22         25.6039
   674.36         25.5641
   674.50         25.5270
   674.64         25.4970
   674.78         25.4782
   674.92         25.4725
   675.06         25.4790
   675.20         25.4945
   675.34         25.5148
   675.48         25.5357
   675.62         25.5524
   675.76         25.5613
   675.90         25.5603
   676.04         25.5493
   676.18         25.5296
   676.32         25.5046
   676.46         25.4793
   676.60         25.4599
   676.74         25.4520
   676.88         25.4580
   677.02         25.4757
   677.16         25.4996
   677.30         25.5227
   677.44         25.5382
   677.58         25.5405
   677.72         25.5272
   677.86         25.4991
   678.00         25.4582
   678.14         25.4069
   678.28         25.3491
   678.42         25.2900
   678.56         25.2367
   678.70         25.1958
   678.84         25.1719
   678.98         25.1661
   679.12         25.1758
   679.26         25.1951
   679.40         25.2175
   679.54         25.2366
   679.68         25.2474
   679.82         25.2487
   679.96         25.2416
   680.10         25.2286
   680.24         25.2126
   680.38         25.1959
   680.52         25.1791
   680.66         25.1621
   680.80         25.1450
   680.94         25.1287
   681.08         25.1148
   681.22         25.1050
   681.36         25.1005
   681.50         25.1016
   681.64         25.1068
   681.78         25.1133
   681.92         25.1192
   682.06         25.1236
   682.20         25.1250
   682.34         25.1220
   682.48         25.1143
   682.62         25.1017
   682.76         25.0832
   682.90         25.0573
   683.04         25.0221
   683.18         24.9779
   683.32         24.9268
   683.46         24.8719
   683.60         24.8164
   683.74         24.7635
   683.88         24.7157
   684.02         24.6754
   684.16         24.6438
   684.30         24.6203
   684.44         24.6035
   684.58         24.5921
   684.72         24.5844
   684.86         24.5788
   685.00         24.5725
   685.14         24.5616
   685.28         24.5412
   685.42         24.5044
   685.56         24.4393
   685.70         24.3289
   685.84         24.1551
   685.98         23.9040
   686.12         23.5698
   686.26         23.1567
   686.40         22.6798
   686.54         22.1642
   686.68         21.6428
   686.82         21.1517
   686.96         20.7264
   687.10         20.3982
   687.24         20.1891
   687.38         20.1083
   687.52         20.1500
   687.66         20.2957
   687.80         20.5176
   687.94         20.7833
   688.08         21.0578
   688.22         21.3086
   688.36         21.5143
   688.50         21.6675
   688.64         21.7738
   688.78         21.8455
   688.92         21.8970
   689.06         21.9427
   689.20         21.9962
   689.34         22.0665
   689.48         22.1566
   689.62         22.2648
   689.76         22.3858
   689.90         22.5125
   690.04         22.6386
   690.18         22.7581
   690.32         22.8656
   690.46         22.9575
   690.60         23.0331
   690.74         23.0938
   690.88         23.1424
   691.02         23.1837
   691.16         23.2208
   691.30         23.2561
   691.44         23.2912
   691.58         23.3287
   691.72         23.3725
   691.86         23.4251
   692.00         23.4867
   692.14         23.5561
   692.28         23.6315
   692.42         23.7104
   692.56         23.7902
   692.70         23.8676
   692.84         23.9391
   692.98         24.0030
   693.12         24.0598
   693.26         24.1101
   693.40         24.1532
   693.54         24.1883
   693.68         24.2140
   693.82         24.2289
   693.96         24.2336
   694.10         24.2315
   694.24         24.2271
   694.38         24.2237
   694.52         24.2226
   694.66         24.2237
   694.80         24.2270
   694.94         24.2325
   695.08         24.2419
   695.22         24.2580
   695.36         24.2836
   695.50         24.3210
   695.64         24.3710
   695.78         24.4332
   695.92         24.5059
   696.06         24.5872
   696.20         24.6755
   696.34         24.7673
   696.48         24.8555
   696.62         24.9301
   696.76         24.9795
   696.90         24.9946
   697.04         24.9723
   697.18         24.9155
   697.32         24.8322
   697.46         24.7331
   697.60         24.6298
   697.74         24.5340
   697.88         24.4546
   698.02         24.3965
   698.16         24.3618
   698.30         24.3510
   698.44         24.3626
   698.58         24.3922
   698.72         24.4330
   698.86         24.4758
   699.00         24.5108
   699.14         24.5300
   699.28         24.5293
   699.42         24.5099
   699.56         24.4785
   699.70         24.4439
   699.84         24.4129
   699.98         24.3890
   700.12         24.3735
   700.26         24.3662
   700.40         24.3650
   700.54         24.3661
   700.68         24.3670
   700.82         24.3682
   700.96         24.3719
   701.10         24.3780
   701.24         24.3836
   701.38         24.3848
   701.52         24.3784
   701.66         24.3627
   701.80         24.3387
   701.94         24.3085
   702.08         24.2739
   702.22         24.2356
   702.36         24.1929
   702.50         24.1444
   702.64         24.0884
   702.78         24.0246
   702.92         23.9556
   703.06         23.8876
   703.20         23.8298
   703.34         23.7925
   703.48         23.7825
   703.62         23.8010
   703.76         23.8451
   703.90         23.9103
   704.04         23.9920
   704.18         24.0846
   704.32         24.1823
   704.46         24.2782
   704.60         24.3637
   704.74         24.4303
   704.88         24.4728
   705.02         24.4895
   705.16         24.4818
   705.30         24.4551
   705.44         24.4165
   705.58         24.3729
   705.72         24.3297
   705.86         24.2898
   706.00         24.2557
   706.14         24.2296
   706.28         24.2132
   706.42         24.2078
   706.56         24.2126
   706.70         24.2261
   706.84         24.2471
   706.98         24.2751
   707.12         24.3080
   707.26         24.3413
   707.40         24.3696
   707.54         24.3896
   707.68         24.4003
   707.82         24.4022
   707.96         24.3959
   708.10         24.3807
   708.24         24.3559
   708.38         24.3228
   708.52         24.2850
   708.66         24.2472
   708.80         24.2140
   708.94         24.1886
   709.08         24.1731
   709.22         24.1688
   709.36         24.1756
   709.50         24.1913
   709.64         24.2110
   709.78         24.2280
   709.92         24.2365
   710.06         24.2360
   710.20         24.2307
   710.34         24.2258
   710.48         24.2244
   710.62         24.2276
   710.76         24.2351
   710.90         24.2461
   711.04         24.2600
   711.18         24.2771
   711.32         24.2973
   711.46         24.3199
   711.60         24.3422
   711.74         24.3610
   711.88         24.3745
   712.02         24.3814
   712.16         24.3809
   712.30         24.3748
   712.44         24.3676
   712.58         24.3650
   712.72         24.3720
   712.86         24.3896
   713.00         24.4136
   713.14         24.4357
   713.28         24.4479
   713.42         24.4428
   713.56         24.4141
   713.70         24.3596
   713.84         24.2826
   713.98         24.1902
   714.12         24.0918
   714.26         23.9972
   714.40         23.9162
   714.54         23.8578
   714.68         23.8285
   714.82         23.8327
   714.96         23.8719
   715.10         23.9415
   715.24         24.0291
   715.38         24.1190
   715.52         24.1975
   715.66         24.2542
   715.80         24.2831
   715.94         24.2808
   716.08         24.2470
   716.22         24.1862
   716.36         24.1072
   716.50         24.0181
   716.64         23.9240
   716.78         23.8282
   716.92         23.7317
   717.06         23.6345
   717.20         23.5352
   717.34         23.4291
   717.48         23.3089
   717.62         23.1689
   717.76         23.0071
   717.90         22.8263
   718.04         22.6341
   718.18         22.4420
   718.32         22.2633
   718.46         22.1113
   718.60         21.9982
   718.74         21.9314
   718.88         21.9104
   719.02         21.9303
   719.16         21.9842
   719.30         22.0637
   719.44         22.1572
   719.58         22.2523
   719.72         22.3419
   719.86         22.4244
   720.00         22.5022
   720.14         22.5820
   720.28         22.6718
   720.42         22.7779
   720.56         22.9048
   720.70         23.0554
   720.84         23.2312
   720.98         23.4288
   721.12         23.6388
   721.26         23.8471
   721.40         24.0381
   721.54         24.2007
   721.68         24.3300
   721.82         24.4225
   721.96         24.4743
   722.10         24.4827
   722.24         24.4498
   722.38         24.3827
   722.52         24.2897
   722.66         24.1774
   722.80         24.0501
   722.94         23.9135
   723.08         23.7770
   723.22         23.6500
   723.36         23.5390
   723.50         23.4479
   723.64         23.3798
   723.78         23.3349
   723.92         23.3101
   724.06         23.2991
   724.20         23.2957
   724.34         23.2936
   724.48         23.2882
   724.62         23.2790
   724.76         23.2691
   724.90         23.2625
   725.04         23.2626
   725.18         23.2697
   725.32         23.2815
   725.46         23.2967
   725.60         23.3162
   725.74         23.3403
   725.88         23.3671
   726.02         23.3953
   726.16         23.4227
   726.30         23.4446
   726.44         23.4548
   726.58         23.4498
   726.72         23.4316
   726.86         23.4056
   727.00         23.3763
   727.14         23.3465
   727.28         23.3181
   727.42         23.2895
   727.56         23.2580
   727.70         23.2208
   727.84         23.1750
   727.98         23.1171
   728.12         23.0452
   728.26         22.9587
   728.40         22.8614
   728.54         22.7612
   728.68         22.6661
   728.82         22.5820
   728.96         22.5152
   729.10         22.4732
   729.24         22.4616
   729.38         22.4826
   729.52         22.5340
   729.66         22.6099
   729.80         22.7017
   729.94         22.8004
   730.08         22.8974
   730.22         22.9864
   730.36         23.0618
   730.50         23.1192
   730.64         23.1575
   730.78         23.1787
   730.92         23.1849
   731.06         23.1786
   731.20         23.1618
   731.34         23.1347
   731.48         23.0976
   731.62         23.0524
   731.76         23.0016
   731.90         22.9473
   732.04         22.8925
   732.18         22.8409
   732.32         22.7959
   732.46         22.7619
   732.60         22.7446
   732.74         22.7493
   732.88         22.7776
   733.02         22.8265
   733.16         22.8898
   733.30         22.9589
   733.44         23.0257
   733.58         23.0835
   733.72         23.1276
   733.86         23.1537
   734.00         23.1576
   734.14         23.1379
   734.28         23.0963
   734.42         23.0352
   734.56         22.9574
   734.70         22.8682
   734.84         22.7767
   734.98         22.6914
   735.12         22.6167
   735.26         22.5526
   735.40         22.4962
   735.54         22.4438
   735.68         22.3922
   735.82         22.3408
   735.96         22.2918
   736.10         22.2507
   736.24         22.2234
   736.38         22.2135
   736.52         22.2227
   736.66         22.2515
   736.80         22.2980
   736.94         22.3578
   737.08         22.4238
   737.22         22.4887
   737.36         22.5450
   737.50         22.5837
   737.64         22.5943
   737.78         22.5684
   737.92         22.5045
   738.06         22.4091
   738.20         22.2934
   738.34         22.1699
   738.48         22.0507
   738.62         21.9461
   738.76         21.8652
   738.90         21.8134
   739.04         21.7912
   739.18         21.7955
   739.32         21.8205
   739.46         21.8593
   739.60         21.9025
   739.74         21.9403
   739.88         21.9647
   740.02         21.9709
   740.16         21.9572
   740.30         21.9264
   740.44         21.8844
   740.58         21.8392
   740.72         21.7987
   740.86         21.7674
   741.00         21.7464
   741.14         21.7349
   741.28         21.7303
   741.42         21.7302
   741.56         21.7319
   741.70         21.7336
   741.84         21.7335
   741.98         21.7300
   742.12         21.7207
   742.26         21.7045
   742.40         21.6838
   742.54         21.6624
   742.68         21.6451
   742.82         21.6354
   742.96         21.6354
   743.10         21.6451
   743.24         21.6624
   743.38         21.6838
   743.52         21.7045
   743.66         21.7207
   743.80         21.7300
   743.94         21.7335
   744.08         21.7336
   744.22         21.7319
