# File SAO21446
# Wavelength [nm]    Normalized Amplitude
   349.70         7.3684
   349.84         7.3116
   349.98         7.2904
   350.12         7.3054
   350.26         7.3579
   350.40         7.4485
   350.54         7.5716
   350.68         7.7108
   350.82         7.8398
   350.96         7.9309
   351.10         7.9637
   351.24         7.9309
   351.38         7.8398
   351.52         7.7108
   351.66         7.5716
   351.80         7.4485
   351.94         7.3579
   352.08         7.3054
   352.22         7.2904
   352.36         7.3116
   352.50         7.3684
   352.64         7.4592
   352.78         7.5795
   352.92         7.7201
   353.06         7.8678
   353.20         8.0090
   353.34         8.1316
   353.48         8.2334
   353.62         8.3199
   353.76         8.3950
   353.90         8.4658
   354.04         8.5435
   354.18         8.6357
   354.32         8.7412
   354.46         8.8528
   354.60         8.9611
   354.74         9.0584
   354.88         9.1417
   355.02         9.2077
   355.16         9.2479
   355.30         9.2511
   355.44         9.2074
   355.58         9.1140
   355.72         8.9789
   355.86         8.8128
   356.00         8.6239
   356.14         8.4217
   356.28         8.2132
   356.42         8.0057
   356.56         7.8130
   356.70         7.6482
   356.84         7.5183
   356.98         7.4261
   357.12         7.3692
   357.26         7.3387
   357.40         7.3238
   357.54         7.3126
   357.68         7.2923
   357.82         7.2541
   357.96         7.1992
   358.10         7.1387
   358.24         7.0918
   358.38         7.0797
   358.52         7.1177
   358.66         7.2136
   358.80         7.3699
   358.94         7.5831
   359.08         7.8460
   359.22         8.1489
   359.36         8.4694
   359.50         8.7723
   359.64         9.0217
   359.78         9.1881
   359.92         9.2493
   360.06         9.1952
   360.20         9.0358
   360.34         8.8024
   360.48         8.5328
   360.62         8.2611
   360.76         8.0192
   360.90         7.8350
   361.04         7.7268
   361.18         7.6999
   361.32         7.7528
   361.46         7.8833
   361.60         8.0869
   361.74         8.3523
   361.88         8.6549
   362.02         8.9587
   362.16         9.2331
   362.30         9.4604
   362.44         9.6302
   362.58         9.7398
   362.72         9.8004
   362.86         9.8346
   363.00         9.8571
   363.14         9.8697
   363.28         9.8786
   363.42         9.8980
   363.56         9.9365
   363.70         9.9934
   363.84         10.0627
   363.98         10.1410
   364.12         10.2236
   364.26         10.2994
   364.40         10.3562
   364.54         10.3880
   364.68         10.3985
   364.82         10.4011
   364.96         10.4106
   365.10         10.4389
   365.24         10.4952
   365.38         10.5799
   365.52         10.6813
   365.66         10.7796
   365.80         10.8590
   365.94         10.9143
   366.08         10.9441
   366.22         10.9496
   366.36         10.9374
   366.50         10.9159
   366.64         10.8928
   366.78         10.8732
   366.92         10.8613
   367.06         10.8621
   367.20         10.8743
   367.34         10.8886
   367.48         10.8939
   367.62         10.8814
   367.76         10.8478
   367.90         10.7973
   368.04         10.7383
   368.18         10.6829
   368.32         10.6450
   368.46         10.6358
   368.60         10.6638
   368.74         10.7330
   368.88         10.8435
   369.02         10.9931
   369.16         11.1714
   369.30         11.3635
   369.44         11.5531
   369.58         11.7183
   369.72         11.8372
   369.86         11.8982
   370.00         11.9056
   370.14         11.8780
   370.28         11.8415
   370.42         11.8229
   370.56         11.8434
   370.70         11.9125
   370.84         12.0263
   370.98         12.1720
   371.12         12.3347
   371.26         12.5018
   371.40         12.6619
   371.54         12.8003
   371.68         12.8990
   371.82         12.9411
   371.96         12.9190
   372.10         12.8352
   372.24         12.6969
   372.38         12.5149
   372.52         12.3021
   372.66         12.0742
   372.80         11.8504
   372.94         11.6487
   373.08         11.4765
   373.22         11.3305
   373.36         11.2032
   373.50         11.0875
   373.64         10.9798
   373.78         10.8782
   373.92         10.7826
   374.06         10.6994
   374.20         10.6424
   374.34         10.6291
   374.48         10.6697
   374.62         10.7613
   374.76         10.8912
   374.90         11.0478
   375.04         11.2278
   375.18         11.4337
   375.32         11.6646
   375.46         11.9092
   375.60         12.1449
   375.74         12.3443
   375.88         12.4889
   376.02         12.5739
   376.16         12.6030
   376.30         12.5867
   376.44         12.5456
   376.58         12.5127
   376.72         12.5226
   376.86         12.5977
   377.00         12.7409
   377.14         12.9407
   377.28         13.1844
   377.42         13.4594
   377.56         13.7510
   377.70         14.0376
   377.84         14.2919
   377.98         14.4891
   378.12         14.6102
   378.26         14.6395
   378.40         14.5681
   378.54         14.3970
   378.68         14.1384
   378.82         13.8160
   378.96         13.4639
   379.10         13.1243
   379.24         12.8405
   379.38         12.6439
   379.52         12.5472
   379.66         12.5526
   379.80         12.6619
   379.94         12.8742
   380.08         13.1761
   380.22         13.5390
   380.36         13.9254
   380.50         14.2957
   380.64         14.6110
   380.78         14.8341
   380.92         14.9395
   381.06         14.9195
   381.20         14.7810
   381.34         14.5408
   381.48         14.2219
   381.62         13.8509
   381.76         13.4554
   381.90         13.0588
   382.04         12.6730
   382.18         12.3025
   382.32         11.9543
   382.46         11.6346
   382.60         11.3420
   382.74         11.0678
   382.88         10.8043
   383.02         10.5566
   383.16         10.3415
   383.30         10.1774
   383.44         10.0778
   383.58         10.0499
   383.72         10.0937
   383.86         10.2016
   384.00         10.3606
   384.14         10.5579
   384.28         10.7817
   384.42         11.0144
   384.56         11.2319
   384.70         11.4112
   384.84         11.5425
   384.98         11.6347
   385.12         11.7080
   385.26         11.7803
   385.40         11.8615
   385.54         11.9547
   385.68         12.0577
   385.82         12.1619
   385.96         12.2540
   386.10         12.3202
   386.24         12.3497
   386.38         12.3359
   386.52         12.2767
   386.66         12.1753
   386.80         12.0387
   386.94         11.8739
   387.08         11.6868
   387.22         11.4897
   387.36         11.3037
   387.50         11.1524
   387.64         11.0538
   387.78         11.0131
   387.92         11.0243
   388.06         11.0831
   388.20         11.1901
   388.34         11.3458
   388.48         11.5491
   388.62         11.7990
   388.76         12.0942
   388.90         12.4303
   389.04         12.7999
   389.18         13.1928
   389.32         13.5918
   389.46         13.9729
   389.60         14.3132
   389.74         14.5997
   389.88         14.8300
   390.02         15.0052
   390.16         15.1264
   390.30         15.1956
   390.44         15.2151
   390.58         15.1872
   390.72         15.1132
   390.86         14.9936
   391.00         14.8288
   391.14         14.6219
   391.28         14.3764
   391.42         14.0894
   391.56         13.7499
   391.70         13.3411
   391.84         12.8453
   391.98         12.2507
   392.12         11.5592
   392.26         10.7881
   392.40         9.9670
   392.54         9.1313
   392.68         8.3177
   392.82         7.5649
   392.96         6.9130
   393.10         6.4019
   393.24         6.0668
   393.38         5.9365
   393.52         6.0253
   393.66         6.3279
   393.80         6.8213
   393.94         7.4674
   394.08         8.2168
   394.22         9.0173
   394.36         9.8199
   394.50         10.5814
   394.64         11.2679
   394.78         11.8527
   394.92         12.3148
   395.06         12.6373
   395.20         12.8046
   395.34         12.8034
   395.48         12.6279
   395.62         12.2820
   395.76         11.7813
   395.90         11.1526
   396.04         10.4349
   396.18         9.6771
   396.32         8.9395
   396.46         8.2889
   396.60         7.7907
   396.74         7.5013
   396.88         7.4623
   397.02         7.6917
   397.16         8.1840
   397.30         8.9132
   397.44         9.8353
   397.58         10.8914
   397.72         12.0150
   397.86         13.1403
   398.00         14.2104
   398.14         15.1794
   398.28         16.0147
   398.42         16.6994
   398.56         17.2353
   398.70         17.6421
   398.84         17.9526
   398.98         18.2036
   399.12         18.4276
   399.26         18.6454
   399.40         18.8668
   399.54         19.0937
   399.68         19.3244
   399.82         19.5551
   399.96         19.7813
   400.10         19.9984
   400.24         20.2020
   400.38         20.3887
   400.52         20.5581
   400.66         20.7121
   400.80         20.8539
   400.94         20.9891
   401.08         21.1246
   401.22         21.2663
   401.36         21.4194
   401.50         21.5866
   401.64         21.7628
   401.78         21.9324
   401.92         22.0763
   402.06         22.1815
   402.20         22.2440
   402.34         22.2663
   402.48         22.2566
   402.62         22.2291
   402.76         22.1974
   402.90         22.1682
   403.04         22.1410
   403.18         22.1124
   403.32         22.0783
   403.46         22.0394
   403.60         22.0046
   403.74         21.9869
   403.88         21.9968
   404.02         22.0374
   404.16         22.1000
   404.30         22.1655
   404.44         22.2159
   404.58         22.2458
   404.72         22.2608
   404.86         22.2691
   405.00         22.2735
   405.14         22.2676
   405.28         22.2398
   405.42         22.1784
   405.56         22.0795
   405.70         21.9523
   405.84         21.8159
   405.98         21.6910
   406.12         21.5917
   406.26         21.5177
   406.40         21.4517
   406.54         21.3685
   406.68         21.2498
   406.82         21.0932
   406.96         20.9082
   407.10         20.7082
   407.24         20.5065
   407.38         20.3149
   407.52         20.1452
   407.66         20.0133
   407.80         19.9418
   407.94         19.9567
   408.08         20.0780
   408.22         20.3095
   408.36         20.6361
   408.50         21.0262
   408.64         21.4363
   408.78         21.8140
   408.92         22.1065
   409.06         22.2778
   409.20         22.3207
   409.34         22.2536
   409.48         22.1048
   409.62         21.8995
   409.76         21.6592
   409.90         21.4101
   410.04         21.1863
   410.18         21.0240
   410.32         20.9515
   410.46         20.9793
   410.60         21.0969
   410.74         21.2782
   410.88         21.4899
   411.02         21.6989
   411.16         21.8771
   411.30         22.0017
   411.44         22.0566
   411.58         22.0392
   411.72         21.9619
   411.86         21.8413
   412.00         21.6874
   412.14         21.5041
   412.28         21.2994
   412.42         21.0956
   412.56         20.9271
   412.70         20.8299
   412.84         20.8257
   412.98         20.9120
   413.12         21.0677
   413.26         21.2676
   413.40         21.4920
   413.54         21.7246
   413.68         21.9476
   413.82         22.1432
   413.96         22.2955
   414.10         22.3935
   414.24         22.4326
   414.38         22.4144
   414.52         22.3486
   414.66         22.2528
   414.80         22.1529
   414.94         22.0791
   415.08         22.0590
   415.22         22.1067
   415.36         22.2210
   415.50         22.3890
   415.64         22.5930
   415.78         22.8147
   415.92         23.0333
   416.06         23.2202
   416.20         23.3411
   416.34         23.3650
   416.48         23.2722
   416.62         23.0565
   416.76         22.7273
   416.90         22.3098
   417.04         21.8421
   417.18         21.3694
   417.32         20.9370
   417.46         20.5852
   417.60         20.3451
   417.74         20.2337
   417.88         20.2513
   418.02         20.3854
   418.16         20.6139
   418.30         20.9048
   418.44         21.2163
   418.58         21.5068
   418.72         21.7448
   418.86         21.9131
   419.00         22.0057
   419.14         22.0241
   419.28         21.9758
   419.42         21.8778
   419.56         21.7553
   419.70         21.6369
   419.84         21.5512
   419.98         21.5215
   420.12         21.5618
   420.26         21.6753
   420.40         21.8550
   420.54         22.0894
   420.68         22.3675
   420.82         22.6774
   420.96         23.0025
   421.10         23.3224
   421.24         23.6139
   421.38         23.8507
   421.52         24.0092
   421.66         24.0796
   421.80         24.0717
   421.94         24.0075
   422.08         23.9104
   422.22         23.7976
   422.36         23.6802
   422.50         23.5632
   422.64         23.4492
   422.78         23.3431
   422.92         23.2547
   423.06         23.1986
   423.20         23.1904
   423.34         23.2355
   423.48         23.3216
   423.62         23.4261
   423.76         23.5292
   423.90         23.6212
   424.04         23.7035
   424.18         23.7866
   424.32         23.8836
   424.46         23.9980
   424.60         24.1197
   424.74         24.2318
   424.88         24.3219
   425.02         24.3885
   425.16         24.4416
   425.30         24.4981
   425.44         24.5739
   425.58         24.6754
   425.72         24.7952
   425.86         24.9114
   426.00         24.9956
   426.14         25.0252
   426.28         24.9942
   426.42         24.9133
   426.56         24.7992
   426.70         24.6673
   426.84         24.5302
   426.98         24.3983
   427.12         24.2807
   427.26         24.1853
   427.40         24.1173
   427.54         24.0768
   427.68         24.0555
   427.82         24.0355
   427.96         23.9934
   428.10         23.9103
   428.24         23.7767
   428.38         23.5896
   428.52         23.3506
   428.66         23.0669
   428.80         22.7491
   428.94         22.4070
   429.08         22.0464
   429.22         21.6692
   429.36         21.2764
   429.50         20.8720
   429.64         20.4639
   429.78         20.0655
   429.92         19.6959
   430.06         19.3762
   430.20         19.1268
   430.34         18.9724
   430.48         18.9494
   430.62         19.0971
   430.76         19.4392
   430.90         19.9700
   431.04         20.6567
   431.18         21.4493
   431.32         22.2916
   431.46         23.1314
   431.60         23.9301
   431.74         24.6629
   431.88         25.3130
   432.02         25.8700
   432.16         26.3318
   432.30         26.7020
   432.44         26.9822
   432.58         27.1629
   432.72         27.2240
   432.86         27.1476
   433.00         26.9328
   433.14         26.5946
   433.28         26.1554
   433.42         25.6438
   433.56         25.1006
   433.70         24.5758
   433.84         24.1174
   433.98         23.7634
   434.12         23.5434
   434.26         23.4801
   434.40         23.5819
   434.54         23.8387
   434.68         24.2255
   434.82         24.7035
   434.96         25.2263
   435.10         25.7507
   435.24         26.2478
   435.38         26.7072
   435.52         27.1294
   435.66         27.5173
   435.80         27.8718
   435.94         28.1891
   436.08         28.4572
   436.22         28.6549
   436.36         28.7590
   436.50         28.7585
   436.64         28.6649
   436.78         28.5122
   436.92         28.3400
   437.06         28.1715
   437.20         28.0048
   437.34         27.8258
   437.48         27.6250
   437.62         27.4035
   437.76         27.1662
   437.90         26.9149
   438.04         26.6508
   438.18         26.3787
   438.32         26.1112
   438.46         25.8682
   438.60         25.6676
   438.74         25.5179
   438.88         25.4241
   439.02         25.3961
   439.16         25.4422
   439.30         25.5566
   439.44         25.7152
   439.58         25.8809
   439.72         26.0145
   439.86         26.0951
   440.00         26.1320
   440.14         26.1505
   440.28         26.1686
   440.42         26.1904
   440.56         26.2127
   440.70         26.2347
   440.84         26.2563
   440.98         26.2753
   441.12         26.2889
   441.26         26.2954
   441.40         26.2952
   441.54         26.2924
   441.68         26.2909
   441.82         26.2892
   441.96         26.2798
   442.10         26.2556
   442.24         26.2131
   442.38         26.1575
   442.52         26.1076
   442.66         26.0860
   442.80         26.1048
   442.94         26.1612
   443.08         26.2413
   443.22         26.3325
   443.36         26.4295
   443.50         26.5295
   443.64         26.6303
   443.78         26.7318
   443.92         26.8344
   444.06         26.9346
   444.20         27.0246
   444.34         27.0957
   444.48         27.1401
   444.62         27.1534
   444.76         27.1352
   444.90         27.0892
   445.04         27.0231
   445.18         26.9459
   445.32         26.8625
   445.46         26.7699
   445.60         26.6625
   445.74         26.5454
   445.88         26.4421
   446.02         26.3881
   446.16         26.4195
   446.30         26.5666
   446.44         26.8455
   446.58         27.2537
   446.72         27.7664
   446.86         28.3398
   447.00         28.9216
   447.14         29.4668
   447.28         29.9457
   447.42         30.3403
   447.56         30.6385
   447.70         30.8304
   447.84         30.9132
   447.98         30.8921
   448.12         30.7813
   448.26         30.6049
   448.40         30.3948
   448.54         30.1885
   448.68         30.0216
   448.82         29.9178
   448.96         29.8866
   449.10         29.9313
   449.24         30.0533
   449.38         30.2501
   449.52         30.5164
   449.66         30.8481
   449.80         31.2405
   449.94         31.6792
   450.08         32.1341
   450.22         32.5650
   450.36         32.9347
   450.50         33.2147
   450.64         33.3856
   450.78         33.4394
   450.92         33.3757
   451.06         33.2002
   451.20         32.9257
   451.34         32.5682
   451.48         32.1449
   451.62         31.6775
   451.76         31.1907
   451.90         30.7026
   452.04         30.2249
   452.18         29.7689
   452.32         29.3515
   452.46         28.9983
   452.60         28.7340
   452.74         28.5708
   452.88         28.5085
   453.02         28.5403
   453.16         28.6536
   453.30         28.8303
   453.44         29.0483
   453.58         29.2780
   453.72         29.4869
   453.86         29.6499
   454.00         29.7529
   454.14         29.7885
   454.28         29.7566
   454.42         29.6683
   454.56         29.5469
   454.70         29.4222
   454.84         29.3238
   454.98         29.2790
   455.12         29.3036
   455.26         29.3934
   455.40         29.5334
   455.54         29.7132
   455.68         29.9284
   455.82         30.1700
   455.96         30.4235
   456.10         30.6758
   456.24         30.9176
   456.38         31.1425
   456.52         31.3450
   456.66         31.5165
   456.80         31.6439
   456.94         31.7167
   457.08         31.7297
   457.22         31.6811
   457.36         31.5723
   457.50         31.4105
   457.64         31.2069
   457.78         30.9759
   457.92         30.7368
   458.06         30.5125
   458.20         30.3242
   458.34         30.1851
   458.48         30.1018
   458.62         30.0790
   458.76         30.1189
   458.90         30.2148
   459.04         30.3527
   459.18         30.5172
   459.32         30.6940
   459.46         30.8738
   459.60         31.0560
   459.74         31.2491
   459.88         31.4638
   460.02         31.7035
   460.16         31.9595
   460.30         32.2155
   460.44         32.4575
   460.58         32.6777
   460.72         32.8736
   460.86         33.0500
   461.00         33.2161
   461.14         33.3802
   461.28         33.5465
   461.42         33.7148
   461.56         33.8808
   461.70         34.0375
   461.84         34.1776
   461.98         34.2958
   462.12         34.3873
   462.26         34.4470
   462.40         34.4691
   462.54         34.4455
   462.68         34.3719
   462.82         34.2561
   462.96         34.1172
   463.10         33.9769
   463.24         33.8503
   463.38         33.7434
   463.52         33.6558
   463.66         33.5826
   463.80         33.5187
   463.94         33.4607
   464.08         33.4059
   464.22         33.3489
   464.36         33.2848
   464.50         33.2165
   464.64         33.1532
   464.78         33.1080
   464.92         33.0934
   465.06         33.1140
   465.20         33.1669
   465.34         33.2414
   465.48         33.3136
   465.62         33.3471
   465.76         33.3049
   465.90         33.1658
   466.04         32.9340
   466.18         32.6380
   466.32         32.3248
   466.46         32.0460
   466.60         31.8423
   466.74         31.7352
   466.88         31.7310
   467.02         31.8325
   467.16         32.0418
   467.30         32.3523
   467.44         32.7425
   467.58         33.1771
   467.72         33.6156
   467.86         34.0245
   468.00         34.3794
   468.14         34.6671
   468.28         34.8912
   468.42         35.0688
   468.56         35.2192
   468.70         35.3525
   468.84         35.4681
   468.98         35.5571
   469.12         35.6003
   469.26         35.5770
   469.40         35.4759
   469.54         35.2996
   469.68         35.0617
   469.82         34.7820
   469.96         34.4829
   470.10         34.1846
   470.24         33.9057
   470.38         33.6661
   470.52         33.4872
   470.66         33.3843
   470.80         33.3613
   470.94         33.4139
   471.08         33.5315
   471.22         33.7011
   471.36         33.9093
   471.50         34.1377
   471.64         34.3602
   471.78         34.5448
   471.92         34.6651
   472.06         34.7084
   472.20         34.6742
   472.34         34.5699
   472.48         34.4062
   472.62         34.1952
   472.76         33.9556
   472.90         33.7146
   473.04         33.5016
   473.18         33.3421
   473.32         33.2543
   473.46         33.2508
   473.60         33.3388
   473.74         33.5180
   473.88         33.7783
   474.02         34.0981
   474.16         34.4460
   474.30         34.7855
   474.44         35.0840
   474.58         35.3215
   474.72         35.4893
   474.86         35.5811
   475.00         35.5872
   475.14         35.4987
   475.28         35.3185
   475.42         35.0626
   475.56         34.7540
   475.70         34.4210
   475.84         34.0971
   475.98         33.8147
   476.12         33.5976
   476.26         33.4616
   476.40         33.4153
   476.54         33.4607
   476.68         33.5908
   476.82         33.7907
   476.96         34.0417
   477.10         34.3249
   477.24         34.6204
   477.38         34.9044
   477.52         35.1483
   477.66         35.3250
   477.80         35.4240
   477.94         35.4577
   478.08         35.4527
   478.22         35.4380
   478.36         35.4343
   478.50         35.4493
   478.64         35.4792
   478.78         35.5177
   478.92         35.5613
   479.06         35.6071
   479.20         35.6509
   479.34         35.6861
   479.48         35.7056
   479.62         35.7027
   479.76         35.6733
   479.90         35.6193
   480.04         35.5485
   480.18         35.4731
   480.32         35.4111
   480.46         35.3831
   480.60         35.4020
   480.74         35.4659
   480.88         35.5596
   481.02         35.6604
   481.16         35.7460
   481.30         35.8016
   481.44         35.8219
   481.58         35.8090
   481.72         35.7694
   481.86         35.7121
   482.00         35.6452
   482.14         35.5758
   482.28         35.5127
   482.42         35.4665
   482.56         35.4449
   482.70         35.4500
   482.84         35.4802
   482.98         35.5315
   483.12         35.5992
   483.26         35.6740
   483.40         35.7408
   483.54         35.7819
   483.68         35.7838
   483.82         35.7410
   483.96         35.6561
   484.10         35.5303
   484.24         35.3540
   484.38         35.1132
   484.52         34.7956
   484.66         34.3896
   484.80         33.8827
   484.94         33.2681
   485.08         32.5553
   485.22         31.7729
   485.36         30.9684
   485.50         30.2008
   485.64         29.5301
   485.78         29.0029
   485.92         28.6431
   486.06         28.4563
   486.20         28.4393
   486.34         28.5831
   486.48         28.8686
   486.62         29.2657
   486.76         29.7353
   486.90         30.2366
   487.04         30.7338
   487.18         31.1907
   487.32         31.5709
   487.46         31.8523
   487.60         32.0382
   487.74         32.1483
   487.88         32.2048
   488.02         32.2278
   488.16         32.2375
   488.30         32.2540
   488.44         32.2977
   488.58         32.3893
   488.72         32.5455
   488.86         32.7746
   489.00         33.0779
   489.14         33.4501
   489.28         33.8783
   489.42         34.3459
   489.56         34.8281
   489.70         35.2882
   489.84         35.6845
   489.98         35.9849
   490.12         36.1780
   490.26         36.2680
   490.40         36.2677
   490.54         36.1912
   490.68         36.0494
   490.82         35.8478
   490.96         35.5840
   491.10         35.2511
   491.24         34.8490
   491.38         34.3939
   491.52         33.9217
   491.66         33.4819
   491.80         33.1235
   491.94         32.8834
   492.08         32.7792
   492.22         32.8051
   492.36         32.9415
   492.50         33.1675
   492.64         33.4629
   492.78         33.8026
   492.92         34.1572
   493.06         34.4997
   493.20         34.8056
   493.34         35.0566
   493.48         35.2463
   493.62         35.3839
   493.76         35.4933
   493.90         35.6067
   494.04         35.7527
   494.18         35.9439
   494.32         36.1736
   494.46         36.4179
   494.60         36.6397
   494.74         36.8057
   494.88         36.9004
   495.02         36.9220
   495.16         36.8778
   495.30         36.7828
   495.44         36.6588
   495.58         36.5296
   495.72         36.4125
   495.86         36.3112
   496.00         36.2233
   496.14         36.1519
   496.28         36.1056
   496.42         36.0894
   496.56         36.0994
   496.70         36.1206
   496.84         36.1285
   496.98         36.0937
   497.12         35.9859
   497.26         35.7863
   497.40         35.4987
   497.54         35.1453
   497.68         34.7552
   497.82         34.3609
   497.96         33.9928
   498.10         33.6739
   498.24         33.4233
   498.38         33.2586
   498.52         33.1919
   498.66         33.2252
   498.80         33.3474
   498.94         33.5322
   499.08         33.7436
   499.22         33.9424
   499.36         34.0902
   499.50         34.1560
   499.64         34.1287
   499.78         34.0204
   499.92         33.8583
   500.06         33.6678
   500.20         33.4624
   500.34         33.2435
   500.48         33.0073
   500.62         32.7509
   500.76         32.4765
   500.90         32.1957
   501.04         31.9251
   501.18         31.6797
   501.32         31.4766
   501.46         31.3351
   501.60         31.2740
   501.74         31.3082
   501.88         31.4428
   502.02         31.6739
   502.16         31.9942
   502.30         32.3888
   502.44         32.8255
   502.58         33.2568
   502.72         33.6340
   502.86         33.9175
   503.00         34.0849
   503.14         34.1359
   503.28         34.0911
   503.42         33.9887
   503.56         33.8722
   503.70         33.7755
   503.84         33.7176
   503.98         33.7107
   504.12         33.7610
   504.26         33.8696
   504.40         34.0376
   504.54         34.2627
   504.68         34.5387
   504.82         34.8560
   504.96         35.2005
   505.10         35.5546
   505.24         35.8992
   505.38         36.2156
   505.52         36.4882
   505.66         36.7076
   505.80         36.8717
   505.94         36.9786
   506.08         37.0201
   506.22         36.9825
   506.36         36.8549
   506.50         36.6407
   506.64         36.3579
   506.78         36.0271
   506.92         35.6660
   507.06         35.2924
   507.20         34.9252
   507.34         34.5860
   507.48         34.2974
   507.62         34.0773
   507.76         33.9373
   507.90         33.8847
   508.04         33.9247
   508.18         34.0586
   508.32         34.2813
   508.46         34.5767
   508.60         34.9101
   508.74         35.2323
   508.88         35.4973
   509.02         35.6756
   509.16         35.7540
   509.30         35.7305
   509.44         35.6134
   509.58         35.4232
   509.72         35.1900
   509.86         34.9459
   510.00         34.7204
   510.14         34.5379
   510.28         34.4157
   510.42         34.3642
   510.56         34.3860
   510.70         34.4749
   510.84         34.6148
   510.98         34.7786
   511.12         34.9315
   511.26         35.0406
   511.40         35.0859
   511.54         35.0619
   511.68         34.9682
   511.82         34.8040
   511.96         34.5721
   512.10         34.2868
   512.24         33.9756
   512.38         33.6715
   512.52         33.4057
   512.66         33.2034
   512.80         33.0789
   512.94         33.0328
   513.08         33.0560
   513.22         33.1321
   513.36         33.2386
   513.50         33.3501
   513.64         33.4451
   513.78         33.5121
   513.92         33.5489
   514.06         33.5559
   514.20         33.5339
   514.34         33.4895
   514.48         33.4399
   514.62         33.4090
   514.76         33.4188
   514.90         33.4796
   515.04         33.5854
   515.18         33.7181
   515.32         33.8519
   515.46         33.9536
   515.60         33.9903
   515.74         33.9405
   515.88         33.7948
   516.02         33.5548
   516.16         33.2366
   516.30         32.8759
   516.44         32.5211
   516.58         32.2217
   516.72         32.0209
   516.86         31.9521
   517.00         32.0297
   517.14         32.2416
   517.28         32.5539
   517.42         32.9206
   517.56         33.2917
   517.70         33.6200
   517.84         33.8637
   517.98         33.9904
   518.12         33.9848
   518.26         33.8530
   518.40         33.6194
   518.54         33.3186
   518.68         32.9906
   518.82         32.6793
   518.96         32.4252
   519.10         32.2542
   519.24         32.1703
   519.38         32.1598
   519.52         32.2017
   519.66         32.2769
   519.80         32.3748
   519.94         32.4936
   520.08         32.6346
   520.22         32.7940
   520.36         32.9593
   520.50         33.1160
   520.64         33.2612
   520.78         33.4040
   520.92         33.5553
   521.06         33.7204
   521.20         33.8915
   521.34         34.0452
   521.48         34.1516
   521.62         34.1878
   521.76         34.1435
   521.90         34.0190
   522.04         33.8258
   522.18         33.5854
   522.32         33.3244
   522.46         33.0729
   522.60         32.8630
   522.74         32.7244
   522.88         32.6781
   523.02         32.7383
   523.16         32.9152
   523.30         33.2071
   523.44         33.5870
   523.58         34.0037
   523.72         34.3964
   523.86         34.7105
   524.00         34.9112
   524.14         34.9876
   524.28         34.9476
   524.42         34.8090
   524.56         34.5938
   524.70         34.3288
   524.84         34.0434
   524.98         33.7605
   525.12         33.4898
   525.26         33.2285
   525.40         32.9680
   525.54         32.6978
   525.68         32.4082
   525.82         32.0919
   525.96         31.7469
   526.10         31.3773
   526.24         30.9972
   526.38         30.6357
   526.52         30.3344
   526.66         30.1340
   526.80         30.0621
   526.94         30.1304
   527.08         30.3357
   527.22         30.6617
   527.36         31.0818
   527.50         31.5623
   527.64         32.0679
   527.78         32.5716
   527.92         33.0587
   528.06         33.5228
   528.20         33.9567
   528.34         34.3490
   528.48         34.6824
   528.62         34.9398
   528.76         35.1115
   528.90         35.1983
   529.04         35.2092
   529.18         35.1586
   529.32         35.0619
   529.46         34.9365
   529.60         34.8052
   529.74         34.6950
   529.88         34.6315
   530.02         34.6308
   530.16         34.6949
   530.30         34.8135
   530.44         34.9686
   530.58         35.1380
   530.72         35.2975
   530.86         35.4248
   531.00         35.5032
   531.14         35.5247
   531.28         35.4912
   531.42         35.4080
   531.56         35.2764
   531.70         35.0970
   531.84         34.8798
   531.98         34.6430
   532.12         34.4062
   532.26         34.1868
   532.40         33.9989
   532.54         33.8485
   532.68         33.7323
   532.82         33.6435
   532.96         33.5803
   533.10         33.5459
   533.24         33.5430
   533.38         33.5702
   533.52         33.6217
   533.66         33.6887
   533.80         33.7621
   533.94         33.8372
   534.08         33.9167
   534.22         34.0123
   534.36         34.1435
   534.50         34.3287
   534.64         34.5739
   534.78         34.8692
   534.92         35.1946
   535.06         35.5242
   535.20         35.8291
   535.34         36.0851
   535.48         36.2744
   535.62         36.3821
   535.76         36.3942
   535.90         36.3025
   536.04         36.1137
   536.18         35.8502
   536.32         35.5465
   536.46         35.2438
   536.60         34.9815
   536.74         34.7887
   536.88         34.6801
   537.02         34.6583
   537.16         34.7163
   537.30         34.8396
   537.44         35.0085
   537.58         35.2018
   537.72         35.3976
   537.86         35.5743
   538.00         35.7116
   538.14         35.7931
   538.28         35.8091
   538.42         35.7574
   538.56         35.6422
   538.70         35.4750
   538.84         35.2733
   538.98         35.0530
   539.12         34.8222
   539.26         34.5803
   539.40         34.3279
   539.54         34.0733
   539.68         33.8286
   539.82         33.6033
   539.96         33.4039
   540.10         33.2393
   540.24         33.1187
   540.38         33.0466
   540.52         33.0234
   540.66         33.0479
   540.80         33.1174
   540.94         33.2269
   541.08         33.3676
   541.22         33.5298
   541.36         33.7074
   541.50         33.8929
   541.64         34.0721
   541.78         34.2294
   541.92         34.3564
   542.06         34.4516
   542.20         34.5123
   542.34         34.5358
   542.48         34.5298
   542.62         34.5150
   542.76         34.5157
   542.90         34.5503
   543.04         34.6297
   543.18         34.7563
   543.32         34.9202
   543.46         35.1030
   543.60         35.2859
   543.74         35.4549
   543.88         35.6047
   544.02         35.7358
   544.16         35.8440
   544.30         35.9166
   544.44         35.9416
   544.58         35.9183
   544.72         35.8585
   544.86         35.7818
   545.00         35.7100
   545.14         35.6615
   545.28         35.6426
   545.42         35.6462
   545.56         35.6591
   545.70         35.6699
   545.84         35.6707
   545.98         35.6566
   546.12         35.6265
   546.26         35.5810
   546.40         35.5158
   546.54         35.4210
   546.68         35.2885
   546.82         35.1154
   546.96         34.9057
   547.10         34.6757
   547.24         34.4506
   547.38         34.2514
   547.52         34.0870
   547.66         33.9595
   547.80         33.8719
   547.94         33.8284
   548.08         33.8318
   548.22         33.8822
   548.36         33.9753
   548.50         34.1004
   548.64         34.2432
   548.78         34.3899
   548.92         34.5306
   549.06         34.6616
   549.20         34.7857
   549.34         34.9074
   549.48         35.0236
   549.62         35.1245
   549.76         35.2006
   549.90         35.2426
   550.04         35.2393
   550.18         35.1858
   550.32         35.0920
   550.46         34.9791
   550.60         34.8705
   550.74         34.7879
   550.88         34.7504
   551.02         34.7703
   551.16         34.8477
   551.30         34.9699
   551.44         35.1141
   551.58         35.2527
   551.72         35.3621
   551.86         35.4280
   552.00         35.4448
   552.14         35.4126
   552.28         35.3360
   552.42         35.2242
   552.56         35.0932
   552.70         34.9652
   552.84         34.8649
   552.98         34.8120
   553.12         34.8130
   553.26         34.8606
   553.40         34.9403
   553.54         35.0353
   553.68         35.1328
   553.82         35.2267
   553.96         35.3166
   554.10         35.4041
   554.24         35.4929
   554.38         35.5881
   554.52         35.6915
   554.66         35.7968
   554.80         35.8919
   554.94         35.9652
   555.08         36.0096
   555.22         36.0223
   555.36         36.0031
   555.50         35.9529
   555.64         35.8720
   555.78         35.7612
   555.92         35.6276
   556.06         35.4852
   556.20         35.3523
   556.34         35.2437
   556.48         35.1660
   556.62         35.1193
   556.76         35.1025
   556.90         35.1154
   557.04         35.1579
   557.18         35.2272
   557.32         35.3159
   557.46         35.4097
   557.60         35.4868
   557.74         35.5242
   557.88         35.5054
   558.02         35.4235
   558.16         35.2795
   558.30         35.0811
   558.44         34.8457
   558.58         34.5979
   558.72         34.3599
   558.86         34.1472
   559.00         33.9697
   559.14         33.8344
   559.28         33.7487
   559.42         33.7187
   559.56         33.7479
   559.70         33.8363
   559.84         33.9778
   559.98         34.1597
   560.12         34.3675
   560.26         34.5851
   560.40         34.7957
   560.54         34.9838
   560.68         35.1377
   560.82         35.2494
   560.96         35.3167
   561.10         35.3407
   561.24         35.3213
   561.38         35.2579
   561.52         35.1554
   561.66         35.0281
   561.80         34.8983
   561.94         34.7914
   562.08         34.7277
   562.22         34.7184
   562.36         34.7622
   562.50         34.8471
   562.64         34.9560
   562.78         35.0701
   562.92         35.1699
   563.06         35.2420
   563.20         35.2845
   563.34         35.3027
   563.48         35.3047
   563.62         35.2998
   563.76         35.2942
   563.90         35.2897
   564.04         35.2882
   564.18         35.2946
   564.32         35.3134
   564.46         35.3410
   564.60         35.3613
   564.74         35.3492
   564.88         35.2813
   565.02         35.1430
   565.16         34.9321
   565.30         34.6591
   565.44         34.3429
   565.58         34.0067
   565.72         33.6756
   565.86         33.3741
   566.00         33.1268
   566.14         32.9566
   566.28         32.8799
   566.42         32.9016
   566.56         33.0164
   566.70         33.2128
   566.84         33.4735
   566.98         33.7726
   567.12         34.0765
   567.26         34.3523
   567.40         34.5768
   567.54         34.7374
   567.68         34.8261
   567.82         34.8403
   567.96         34.7859
   568.10         34.6779
   568.24         34.5370
   568.38         34.3878
   568.52         34.2565
   568.66         34.1661
   568.80         34.1315
   568.94         34.1560
   569.08         34.2309
   569.22         34.3390
   569.36         34.4595
   569.50         34.5676
   569.64         34.6354
   569.78         34.6361
   569.92         34.5523
   570.06         34.3810
   570.20         34.1338
   570.34         33.8364
   570.48         33.5237
   570.62         33.2317
   570.76         32.9904
   570.90         32.8214
   571.04         32.7396
   571.18         32.7556
   571.32         32.8736
   571.46         33.0892
   571.60         33.3892
   571.74         33.7515
   571.88         34.1489
   572.02         34.5514
   572.16         34.9295
   572.30         35.2608
   572.44         35.5331
   572.58         35.7439
   572.72         35.8982
   572.86         36.0036
   573.00         36.0670
   573.14         36.0938
   573.28         36.0910
   573.42         36.0668
   573.56         36.0286
   573.70         35.9831
   573.84         35.9367
   573.98         35.8926
   574.12         35.8477
   574.26         35.7931
   574.40         35.7237
   574.54         35.6446
   574.68         35.5641
   574.82         35.4892
   574.96         35.4222
   575.10         35.3613
   575.24         35.3045
   575.38         35.2537
   575.52         35.2135
   575.66         35.1879
   575.80         35.1788
   575.94         35.1846
   576.08         35.1990
   576.22         35.2129
   576.36         35.2191
   576.50         35.2122
   576.64         35.1843
   576.78         35.1225
   576.92         35.0142
   577.06         34.8530
   577.20         34.6359
   577.34         34.3627
   577.48         34.0437
   577.62         33.7035
   577.76         33.3747
   577.90         33.0906
   578.04         32.8782
   578.18         32.7533
   578.32         32.7198
   578.46         32.7704
   578.60         32.8881
   578.74         33.0532
   578.88         33.2476
   579.02         33.4552
   579.16         33.6595
   579.30         33.8426
   579.44         33.9882
   579.58         34.0893
   579.72         34.1528
   579.86         34.1926
   580.00         34.2233
   580.14         34.2573
   580.28         34.3001
   580.42         34.3483
   580.56         34.3948
   580.70         34.4344
   580.84         34.4668
   580.98         34.4985
   581.12         34.5404
   581.26         34.6030
   581.40         34.6937
   581.54         34.8145
   581.68         34.9597
   581.82         35.1188
   581.96         35.2800
   582.10         35.4330
   582.24         35.5718
   582.38         35.6930
   582.52         35.7930
   582.66         35.8699
   582.80         35.9247
   582.94         35.9597
   583.08         35.9801
   583.22         35.9953
   583.36         36.0135
   583.50         36.0371
   583.64         36.0613
   583.78         36.0762
   583.92         36.0683
   584.06         36.0241
   584.20         35.9345
   584.34         35.7949
   584.48         35.6052
   584.62         35.3700
   584.76         35.1017
   584.90         34.8197
   585.04         34.5466
   585.18         34.3047
   585.32         34.1149
   585.46         33.9941
   585.60         33.9533
   585.74         33.9980
   585.88         34.1265
   586.02         34.3270
   586.16         34.5807
   586.30         34.8670
   586.44         35.1625
   586.58         35.4401
   586.72         35.6757
   586.86         35.8539
   587.00         35.9661
   587.14         36.0100
   587.28         35.9914
   587.42         35.9192
   587.56         35.7944
   587.70         35.6014
   587.84         35.3179
   587.98         34.9354
   588.12         34.4618
   588.26         33.9055
   588.40         33.2737
   588.54         32.5862
   588.68         31.8819
   588.82         31.2139
   588.96         30.6402
   589.10         30.2115
   589.24         29.9662
   589.38         29.9278
   589.52         30.1009
   589.66         30.4689
   589.80         30.9970
   589.94         31.6346
   590.08         32.3181
   590.22         32.9792
   590.36         33.5615
   590.50         34.0363
   590.64         34.3977
   590.78         34.6431
   590.92         34.7742
   591.06         34.8134
   591.20         34.8016
   591.34         34.7729
   591.48         34.7441
   591.62         34.7188
   591.76         34.6946
   591.90         34.6693
   592.04         34.6402
   592.18         34.6035
   592.32         34.5575
   592.46         34.5056
   592.60         34.4530
   592.74         34.4034
   592.88         34.3615
   593.02         34.3339
   593.16         34.3262
   593.30         34.3410
   593.44         34.3743
   593.58         34.4164
   593.72         34.4536
   593.86         34.4694
   594.00         34.4491
   594.14         34.3877
   594.28         34.2900
   594.42         34.1655
   594.56         34.0267
   594.70         33.8889
   594.84         33.7695
   594.98         33.6861
   595.12         33.6499
   595.26         33.6630
   595.40         33.7213
   595.54         33.8151
   595.68         33.9304
   595.82         34.0528
   595.96         34.1692
   596.10         34.2636
   596.24         34.3206
   596.38         34.3322
   596.52         34.2981
   596.66         34.2221
   596.80         34.1134
   596.94         33.9843
   597.08         33.8476
   597.22         33.7144
   597.36         33.5923
   597.50         33.4836
   597.64         33.3864
   597.78         33.2963
   597.92         33.2116
   598.06         33.1360
   598.20         33.0753
   598.34         33.0367
   598.48         33.0276
   598.62         33.0503
   598.76         33.1015
   598.90         33.1782
   599.04         33.2780
   599.18         33.3956
   599.32         33.5227
   599.46         33.6469
   599.60         33.7511
   599.74         33.8186
   599.88         33.8397
   600.02         33.8138
   600.16         33.7462
   600.30         33.6461
   600.44         33.5280
   600.58         33.4097
   600.72         33.3035
   600.86         33.2113
   601.00         33.1289
   601.14         33.0528
   601.28         32.9814
   601.42         32.9139
   601.56         32.8494
   601.70         32.7856
   601.84         32.7229
   601.98         32.6653
   602.12         32.6165
   602.26         32.5831
   602.40         32.5745
   602.54         32.5954
   602.68         32.6434
   602.82         32.7113
   602.96         32.7904
   603.10         32.8739
   603.24         32.9561
   603.38         33.0300
   603.52         33.0905
   603.66         33.1394
   603.80         33.1830
   603.94         33.2255
   604.08         33.2680
   604.22         33.3095
   604.36         33.3505
   604.50         33.3952
   604.64         33.4498
   604.78         33.5177
   604.92         33.6004
   605.06         33.6950
   605.20         33.7945
   605.34         33.8905
   605.48         33.9764
   605.62         34.0493
   605.76         34.1086
   605.90         34.1548
   606.04         34.1878
   606.18         34.2093
   606.32         34.2225
   606.46         34.2282
   606.60         34.2248
   606.74         34.2104
   606.88         34.1841
   607.02         34.1456
   607.16         34.0941
   607.30         34.0287
   607.44         33.9485
   607.58         33.8548
   607.72         33.7518
   607.86         33.6452
   608.00         33.5431
   608.14         33.4549
   608.28         33.3874
   608.42         33.3440
   608.56         33.3230
   608.70         33.3178
   608.84         33.3174
   608.98         33.3045
   609.12         33.2623
   609.26         33.1829
   609.40         33.0693
   609.54         32.9323
   609.68         32.7869
   609.82         32.6499
   609.96         32.5379
   610.10         32.4643
   610.24         32.4356
   610.38         32.4509
   610.52         32.5055
   610.66         32.5936
   610.80         32.7067
   610.94         32.8313
   611.08         32.9496
   611.22         33.0444
   611.36         33.1041
   611.50         33.1228
   611.64         33.1002
   611.78         33.0453
   611.92         32.9717
   612.06         32.8911
   612.20         32.8114
   612.34         32.7338
   612.48         32.6493
   612.62         32.5461
   612.76         32.4169
   612.90         32.2572
   613.04         32.0657
   613.18         31.8470
   613.32         31.6126
   613.46         31.3776
   613.60         31.1563
   613.74         30.9640
   613.88         30.8183
   614.02         30.7355
   614.16         30.7272
   614.30         30.7953
   614.44         30.9313
   614.58         31.1191
   614.72         31.3365
   614.86         31.5552
   615.00         31.7429
   615.14         31.8718
   615.28         31.9294
   615.42         31.9152
   615.56         31.8331
   615.70         31.6907
   615.84         31.5016
   615.98         31.2856
   616.12         31.0651
   616.26         30.8606
   616.40         30.6921
   616.54         30.5775
   616.68         30.5272
   616.82         30.5421
   616.96         30.6149
   617.10         30.7345
   617.24         30.8894
   617.38         31.0650
   617.52         31.2443
   617.66         31.4120
   617.80         31.5562
   617.94         31.6686
   618.08         31.7454
   618.22         31.7892
   618.36         31.8085
   618.50         31.8196
   618.64         31.8424
   618.78         31.8890
   618.92         31.9621
   619.06         32.0601
   619.20         32.1813
   619.34         32.3231
   619.48         32.4819
   619.62         32.6529
   619.76         32.8279
   619.90         32.9972
   620.04         33.1470
   620.18         33.2604
   620.32         33.3239
   620.46         33.3310
   620.60         33.2823
   620.74         33.1842
   620.88         33.0481
   621.02         32.8869
   621.16         32.7141
   621.30         32.5423
   621.44         32.3826
   621.58         32.2462
   621.72         32.1406
   621.86         32.0660
   622.00         32.0173
   622.14         31.9887
   622.28         31.9758
   622.42         31.9721
   622.56         31.9669
   622.70         31.9468
   622.84         31.9040
   622.98         31.8411
   623.12         31.7637
   623.26         31.6743
   623.40         31.5726
   623.54         31.4615
   623.68         31.3494
   623.82         31.2444
   623.96         31.1508
   624.10         31.0658
   624.24         30.9812
   624.38         30.8892
   624.52         30.7905
   624.66         30.6942
   624.80         30.6125
   624.94         30.5543
   625.08         30.5188
   625.22         30.4979
   625.36         30.4883
   625.50         30.4957
   625.64         30.5252
   625.78         30.5754
   625.92         30.6429
   626.06         30.7272
   626.20         30.8309
   626.34         30.9532
   626.48         31.0827
   626.62         31.1981
   626.76         31.2735
   626.90         31.2861
   627.04         31.2234
   627.18         31.0836
   627.32         30.8743
   627.46         30.6123
   627.60         30.3216
   627.74         30.0302
   627.88         29.7685
   628.02         29.5688
   628.16         29.4573
   628.30         29.4476
   628.44         29.5416
   628.58         29.7302
   628.72         29.9928
   628.86         30.2967
   629.00         30.6039
   629.14         30.8797
   629.28         31.0969
   629.42         31.2402
   629.56         31.3087
   629.70         31.3144
   629.84         31.2767
   629.98         31.2179
   630.12         31.1574
   630.26         31.1061
   630.40         31.0666
   630.54         31.0362
   630.68         31.0103
   630.82         30.9843
   630.96         30.9546
   631.10         30.9198
   631.24         30.8831
   631.38         30.8536
   631.52         30.8434
   631.66         30.8654
   631.80         30.9275
   631.94         31.0291
   632.08         31.1640
   632.22         31.3219
   632.36         31.4863
   632.50         31.6386
   632.64         31.7640
   632.78         31.8521
   632.92         31.8968
   633.06         31.8973
   633.20         31.8572
   633.34         31.7859
   633.48         31.6979
   633.62         31.6102
   633.76         31.5379
   633.90         31.4921
   634.04         31.4776
   634.18         31.4908
   634.32         31.5227
   634.46         31.5641
   634.60         31.6058
   634.74         31.6384
   634.88         31.6523
   635.02         31.6416
   635.16         31.6074
   635.30         31.5551
   635.44         31.4881
   635.58         31.4085
   635.72         31.3190
   635.86         31.2263
   636.00         31.1421
   636.14         31.0803
   636.28         31.0531
   636.42         31.0669
   636.56         31.1218
   636.70         31.2109
   636.84         31.3238
   636.98         31.4512
   637.12         31.5835
   637.26         31.7090
   637.40         31.8170
   637.54         31.9017
   637.68         31.9620
   637.82         31.9996
   637.96         32.0148
   638.10         32.0064
   638.24         31.9767
   638.38         31.9353
   638.52         31.8945
   638.66         31.8618
   638.80         31.8373
   638.94         31.8173
   639.08         31.7984
   639.22         31.7784
   639.36         31.7539
   639.50         31.7195
   639.64         31.6712
   639.78         31.6087
   639.92         31.5352
   640.06         31.4561
   640.20         31.3767
   640.34         31.3011
   640.48         31.2318
   640.62         31.1702
   640.76         31.1169
   640.90         31.0742
   641.04         31.0453
   641.18         31.0303
   641.32         31.0272
   641.46         31.0377
   641.60         31.0652
   641.74         31.1087
   641.88         31.1614
   642.02         31.2129
   642.16         31.2578
   642.30         31.2998
   642.44         31.3430
   642.58         31.3858
   642.72         31.4227
   642.86         31.4516
   643.00         31.4760
   643.14         31.5018
   643.28         31.5345
   643.42         31.5768
   643.56         31.6283
   643.70         31.6848
   643.84         31.7370
   643.98         31.7752
   644.12         31.7914
   644.26         31.7757
   644.40         31.7180
   644.54         31.6163
   644.68         31.4794
   644.82         31.3213
   644.96         31.1523
   645.10         30.9768
   645.24         30.8019
   645.38         30.6421
   645.52         30.5153
   645.66         30.4344
   645.80         30.4020
   645.94         30.4123
   646.08         30.4552
   646.22         30.5200
   646.36         30.5988
   646.50         30.6898
   646.64         30.7926
   646.78         30.9025
   646.92         31.0118
   647.06         31.1155
   647.20         31.2142
   647.34         31.3104
   647.48         31.4048
   647.62         31.4968
   647.76         31.5846
   647.90         31.6621
   648.04         31.7151
   648.18         31.7221
   648.32         31.6602
   648.46         31.5132
   648.60         31.2790
   648.74         30.9719
   648.88         30.6189
   649.02         30.2580
   649.16         29.9313
   649.30         29.6754
   649.44         29.5181
   649.58         29.4797
   649.72         29.5709
   649.86         29.7899
   650.00         30.1201
   650.14         30.5292
   650.28         30.9726
   650.42         31.3996
   650.56         31.7663
   650.70         32.0456
   650.84         32.2289
   650.98         32.3241
   651.12         32.3513
   651.26         32.3359
   651.40         32.2998
   651.54         32.2569
   651.68         32.2149
   651.82         32.1768
   651.96         32.1418
   652.10         32.1086
   652.24         32.0772
   652.38         32.0471
   652.52         32.0166
   652.66         31.9839
   652.80         31.9504
   652.94         31.9220
   653.08         31.9076
   653.22         31.9158
   653.36         31.9488
   653.50         32.0006
   653.64         32.0605
   653.78         32.1178
   653.92         32.1616
   654.06         32.1830
   654.20         32.1780
   654.34         32.1468
   654.48         32.0903
   654.62         32.0077
   654.76         31.8918
   654.90         31.7261
   655.04         31.4855
   655.18         31.1494
   655.32         30.7203
   655.46         30.2246
   655.60         29.7013
   655.74         29.1921
   655.88         28.7368
   656.02         28.3723
   656.16         28.1311
   656.30         28.0377
   656.44         28.1053
   656.58         28.3328
   656.72         28.7031
   656.86         29.1854
   657.00         29.7390
   657.14         30.3177
   657.28         30.8741
   657.42         31.3649
   657.56         31.7606
   657.70         32.0531
   657.84         32.2556
   657.98         32.3893
   658.12         32.4648
   658.26         32.4841
   658.40         32.4502
   658.54         32.3711
   658.68         32.2605
   658.82         32.1370
   658.96         32.0202
   659.10         31.9257
   659.24         31.8607
   659.38         31.8249
   659.52         31.8134
   659.66         31.8188
   659.80         31.8342
   659.94         31.8530
   660.08         31.8676
   660.22         31.8712
   660.36         31.8603
   660.50         31.8356
   660.64         31.8006
   660.78         31.7636
   660.92         31.7389
   661.06         31.7405
   661.20         31.7757
   661.34         31.8451
   661.48         31.9443
   661.62         32.0653
   661.76         32.1973
   661.90         32.3272
   662.04         32.4415
   662.18         32.5266
   662.32         32.5742
   662.46         32.5827
   662.60         32.5535
   662.74         32.4908
   662.88         32.4032
   663.02         32.3003
   663.16         32.1899
   663.30         32.0768
   663.44         31.9654
   663.58         31.8605
   663.72         31.7665
   663.86         31.6862
   664.00         31.6223
   664.14         31.5774
   664.28         31.5533
   664.42         31.5478
   664.56         31.5577
   664.70         31.5825
   664.84         31.6226
   664.98         31.6757
   665.12         31.7328
   665.26         31.7812
   665.40         31.8112
   665.54         31.8154
   665.68         31.7904
   665.82         31.7392
   665.96         31.6708
   666.10         31.5996
   666.24         31.5398
   666.38         31.4987
   666.52         31.4751
   666.66         31.4615
   666.80         31.4517
   666.94         31.4417
   667.08         31.4282
   667.22         31.4099
   667.36         31.3876
   667.50         31.3625
   667.64         31.3373
   667.78         31.3198
   667.92         31.3219
   668.06         31.3527
   668.20         31.4119
   668.34         31.4930
   668.48         31.5854
   668.62         31.6758
   668.76         31.7510
   668.90         31.7987
   669.04         31.8099
   669.18         31.7826
   669.32         31.7237
   669.46         31.6474
   669.60         31.5683
   669.74         31.4976
   669.88         31.4456
   670.02         31.4195
   670.16         31.4208
   670.30         31.4435
   670.44         31.4755
   670.58         31.5031
   670.72         31.5138
   670.86         31.5000
   671.00         31.4616
   671.14         31.4035
   671.28         31.3342
   671.42         31.2642
   671.56         31.2013
   671.70         31.1492
   671.84         31.1110
   671.98         31.0901
   672.12         31.0888
   672.26         31.1059
   672.40         31.1361
   672.54         31.1725
   672.68         31.2068
   672.82         31.2307
   672.96         31.2371
   673.10         31.2252
   673.24         31.2015
   673.38         31.1751
   673.52         31.1517
   673.66         31.1300
   673.80         31.1046
   673.94         31.0725
   674.08         31.0344
   674.22         30.9920
   674.36         30.9479
   674.50         30.9046
   674.64         30.8642
   674.78         30.8297
   674.92         30.8053
   675.06         30.7963
   675.20         30.8074
   675.34         30.8399
   675.48         30.8902
   675.62         30.9518
   675.76         31.0173
   675.90         31.0779
   676.04         31.1231
   676.18         31.1431
   676.32         31.1340
   676.46         31.1012
   676.60         31.0585
   676.74         31.0195
   676.88         30.9926
   677.02         30.9816
   677.16         30.9881
   677.30         31.0126
   677.44         31.0538
   677.58         31.1078
   677.72         31.1693
   677.86         31.2324
   678.00         31.2902
   678.14         31.3376
   678.28         31.3725
   678.42         31.3955
   678.56         31.4084
   678.70         31.4152
   678.84         31.4209
   678.98         31.4279
   679.12         31.4340
   679.26         31.4366
   679.40         31.4321
   679.54         31.4187
   679.68         31.3969
   679.82         31.3689
   679.96         31.3386
   680.10         31.3115
   680.24         31.2947
   680.38         31.2931
   680.52         31.3051
   680.66         31.3261
   680.80         31.3505
   680.94         31.3728
   681.08         31.3893
   681.22         31.3986
   681.36         31.3998
   681.50         31.3894
   681.64         31.3623
   681.78         31.3189
   681.92         31.2642
   682.06         31.2024
   682.20         31.1354
   682.34         31.0641
   682.48         30.9889
   682.62         30.9103
   682.76         30.8278
   682.90         30.7381
   683.04         30.6367
   683.18         30.5218
   683.32         30.3963
   683.46         30.2660
   683.60         30.1394
   683.74         30.0261
   683.88         29.9330
   684.02         29.8640
   684.16         29.8178
   684.30         29.7894
   684.44         29.7745
   684.58         29.7679
   684.72         29.7644
   684.86         29.7597
   685.00         29.7493
   685.14         29.7291
   685.28         29.6968
   685.42         29.6452
   685.56         29.5577
   685.70         29.4113
   685.84         29.1847
   685.98         28.8633
   686.12         28.4425
   686.26         27.9298
   686.40         27.3445
   686.54         26.7163
   686.68         26.0830
   686.82         25.4875
   686.96         24.9766
   687.10         24.5948
   687.24         24.3721
   687.38         24.3167
   687.52         24.4164
   687.66         24.6438
   687.80         24.9609
   687.94         25.3240
   688.08         25.6868
   688.22         26.0094
   688.36         26.2693
   688.50         26.4639
   688.64         26.6043
   688.78         26.7059
   688.92         26.7846
   689.06         26.8558
   689.20         26.9337
   689.34         27.0300
   689.48         27.1518
   689.62         27.2989
   689.76         27.4647
   689.90         27.6398
   690.04         27.8155
   690.18         27.9852
   690.32         28.1461
   690.46         28.2984
   690.60         28.4422
   690.74         28.5761
   690.88         28.6998
   691.02         28.8158
   691.16         28.9250
   691.30         29.0241
   691.44         29.1081
   691.58         29.1755
   691.72         29.2287
   691.86         29.2705
   692.00         29.3014
   692.14         29.3191
   692.28         29.3226
   692.42         29.3163
   692.56         29.3079
   692.70         29.3048
   692.84         29.3131
   692.98         29.3369
   693.12         29.3770
   693.26         29.4297
   693.40         29.4890
   693.54         29.5491
   693.68         29.6023
   693.82         29.6396
   693.96         29.6545
   694.10         29.6461
   694.24         29.6172
   694.38         29.5718
   694.52         29.5155
   694.66         29.4553
   694.80         29.4012
   694.94         29.3646
   695.08         29.3543
   695.22         29.3738
   695.36         29.4214
   695.50         29.4932
   695.64         29.5844
   695.78         29.6902
   695.92         29.8061
   696.06         29.9276
   696.20         30.0486
   696.34         30.1598
   696.48         30.2494
   696.62         30.3060
   696.76         30.3217
   696.90         30.2960
   697.04         30.2359
   697.18         30.1524
   697.32         30.0576
   697.46         29.9635
   697.60         29.8808
   697.74         29.8172
   697.88         29.7794
   698.02         29.7721
   698.16         29.7970
   698.30         29.8532
   698.44         29.9367
   698.58         30.0389
   698.72         30.1452
   698.86         30.2383
   699.00         30.3037
   699.14         30.3322
   699.28         30.3194
   699.42         30.2670
   699.56         30.1837
   699.70         30.0816
   699.84         29.9710
   699.98         29.8611
   700.12         29.7621
   700.26         29.6812
   700.40         29.6211
   700.54         29.5809
   700.68         29.5604
   700.82         29.5596
   700.96         29.5737
   701.10         29.5917
   701.24         29.6016
   701.38         29.5961
   701.52         29.5753
   701.66         29.5445
   701.80         29.5095
   701.94         29.4748
   702.08         29.4440
   702.22         29.4216
   702.36         29.4114
   702.50         29.4139
   702.64         29.4261
   702.78         29.4430
   702.92         29.4606
   703.06         29.4770
   703.20         29.4929
   703.34         29.5114
   703.48         29.5339
   703.62         29.5587
   703.76         29.5854
   703.90         29.6162
   704.04         29.6513
   704.18         29.6882
   704.32         29.7236
   704.46         29.7541
   704.60         29.7758
   704.74         29.7871
   704.88         29.7894
   705.02         29.7854
   705.16         29.7757
   705.30         29.7584
   705.44         29.7303
   705.58         29.6872
   705.72         29.6251
   705.86         29.5445
   706.00         29.4526
   706.14         29.3597
   706.28         29.2748
   706.42         29.2064
   706.56         29.1609
   706.70         29.1412
   706.84         29.1494
   706.98         29.1858
   707.12         29.2468
   707.26         29.3252
   707.40         29.4121
   707.54         29.4978
   707.68         29.5714
   707.82         29.6223
   707.96         29.6428
   708.10         29.6314
   708.24         29.5939
   708.38         29.5428
   708.52         29.4925
   708.66         29.4545
   708.80         29.4351
   708.94         29.4362
   709.08         29.4577
   709.22         29.4972
   709.36         29.5506
   709.50         29.6129
   709.64         29.6780
   709.78         29.7388
   709.92         29.7880
   710.06         29.8188
   710.20         29.8266
   710.34         29.8094
   710.48         29.7674
   710.62         29.7040
   710.76         29.6233
   710.90         29.5292
   711.04         29.4257
   711.18         29.3162
   711.32         29.2060
   711.46         29.1019
   711.60         29.0098
   711.74         28.9344
   711.88         28.8779
   712.02         28.8427
   712.16         28.8322
   712.30         28.8502
   712.44         28.8982
   712.58         28.9725
   712.72         29.0659
   712.86         29.1681
   713.00         29.2686
   713.14         29.3574
   713.28         29.4262
   713.42         29.4671
   713.56         29.4741
   713.70         29.4455
   713.84         29.3844
   713.98         29.2987
   714.12         29.1997
   714.26         29.1002
   714.40         29.0143
   714.54         28.9571
   714.68         28.9405
   714.82         28.9690
   714.96         29.0380
   715.10         29.1343
   715.24         29.2385
   715.38         29.3319
   715.52         29.4007
   715.66         29.4363
   715.80         29.4335
   715.94         29.3903
   716.08         29.3088
   716.22         29.1952
   716.36         29.0594
   716.50         28.9115
   716.64         28.7601
   716.78         28.6125
   716.92         28.4722
   717.06         28.3394
   717.20         28.2103
   717.34         28.0742
   717.48         27.9182
   717.62         27.7374
   717.76         27.5369
   717.90         27.3268
   718.04         27.1180
   718.18         26.9211
   718.32         26.7459
   718.46         26.6022
   718.60         26.4982
   718.74         26.4392
   718.88         26.4250
   719.02         26.4493
   719.16         26.5032
   719.30         26.5753
   719.44         26.6521
   719.58         26.7233
   719.72         26.7863
   719.86         26.8454
   720.00         26.9090
   720.14         26.9908
   720.28         27.1062
   720.42         27.2634
   720.56         27.4617
   720.70         27.6946
   720.84         27.9519
   720.98         28.2166
   721.12         28.4637
   721.26         28.6662
   721.40         28.8052
   721.54         28.8721
   721.68         28.8701
   721.82         28.8118
   721.96         28.7157
   722.10         28.6024
   722.24         28.4919
   722.38         28.3996
   722.52         28.3348
   722.66         28.2995
   722.80         28.2900
   722.94         28.2998
   723.08         28.3208
   723.22         28.3424
   723.36         28.3557
   723.50         28.3573
   723.64         28.3487
   723.78         28.3350
   723.92         28.3246
   724.06         28.3220
   724.20         28.3250
   724.34         28.3305
   724.48         28.3385
   724.62         28.3484
   724.76         28.3579
   724.90         28.3643
   725.04         28.3669
   725.18         28.3656
   725.32         28.3579
   725.46         28.3440
   725.60         28.3268
   725.74         28.3078
   725.88         28.2887
   726.02         28.2719
   726.16         28.2542
   726.30         28.2260
   726.44         28.1771
   726.58         28.1025
   726.72         28.0056
   726.86         27.8979
   727.00         27.7921
   727.14         27.6948
   727.28         27.6073
   727.42         27.5277
   727.56         27.4503
   727.70         27.3692
   727.84         27.2795
   727.98         27.1787
   728.12         27.0700
   728.26         26.9601
   728.40         26.8576
   728.54         26.7716
   728.68         26.7086
   728.82         26.6707
   728.96         26.6599
   729.10         26.6789
   729.24         26.7307
   729.38         26.8140
   729.52         26.9192
   729.66         27.0289
   729.80         27.1247
   729.94         27.1936
   730.08         27.2288
   730.22         27.2299
   730.36         27.2021
   730.50         27.1539
   730.64         27.0949
   730.78         27.0360
   730.92         26.9858
   731.06         26.9477
   731.20         26.9215
   731.34         26.9064
   731.48         26.9010
   731.62         26.9031
   731.76         26.9076
   731.90         26.9085
   732.04         26.9010
   732.18         26.8830
   732.32         26.8588
   732.46         26.8401
   732.60         26.8395
   732.74         26.8647
   732.88         26.9184
   733.02         27.0002
   733.16         27.1081
   733.30         27.2382
   733.44         27.3852
   733.58         27.5409
   733.72         27.6934
   733.86         27.8287
   734.00         27.9324
   734.14         27.9914
   734.28         27.9958
   734.42         27.9422
   734.56         27.8368
   734.70         27.6926
   734.84         27.5257
   734.98         27.3526
   735.12         27.1872
   735.26         27.0400
   735.40         26.9194
   735.54         26.8299
   735.68         26.7710
   735.82         26.7378
   735.96         26.7227
   736.10         26.7175
   736.24         26.7141
   736.38         26.7038
   736.52         26.6807
   736.66         26.6440
   736.80         26.5967
   736.94         26.5434
   737.08         26.4870
   737.22         26.4280
   737.36         26.3628
   737.50         26.2848
   737.64         26.1877
   737.78         26.0715
   737.92         25.9420
   738.06         25.8053
   738.20         25.6671
   738.34         25.5357
   738.48         25.4213
   738.62         25.3344
   738.76         25.2853
   738.90         25.2815
   739.04         25.3269
   739.18         25.4224
   739.32         25.5614
   739.46         25.7269
   739.60         25.8951
   739.74         26.0409
   739.88         26.1440
   740.02         26.1935
   740.16         26.1875
   740.30         26.1302
   740.44         26.0293
   740.58         25.8921
   740.72         25.7256
   740.86         25.5393
   741.00         25.3452
   741.14         25.1563
   741.28         24.9858
   741.42         24.8459
   741.56         24.7473
   741.70         24.6977
   741.84         24.6982
   741.98         24.7411
   742.12         24.8135
   742.26         24.9013
   742.40         24.9910
   742.54         25.0717
   742.68         25.1338
   742.82         25.1681
   742.96         25.1681
   743.10         25.1338
   743.24         25.0717
   743.38         24.9910
   743.52         24.9013
   743.66         24.8135
   743.80         24.7411
   743.94         24.6982
   744.08         24.6977
   744.22         24.7473
