# File SAO37325
# Wavelength [nm]    Normalized Amplitude
   349.70         2.8029
   349.84         2.7586
   349.98         2.7442
   350.12         2.7539
   350.26         2.7816
   350.40         2.8214
   350.54         2.8671
   350.68         2.9124
   350.82         2.9509
   350.96         2.9768
   351.10         2.9860
   351.24         2.9768
   351.38         2.9509
   351.52         2.9124
   351.66         2.8671
   351.80         2.8214
   351.94         2.7816
   352.08         2.7539
   352.22         2.7442
   352.36         2.7586
   352.50         2.8029
   352.64         2.8796
   352.78         2.9867
   352.92         3.1178
   353.06         3.2617
   353.20         3.4055
   353.34         3.5374
   353.48         3.6473
   353.62         3.7269
   353.76         3.7711
   353.90         3.7789
   354.04         3.7532
   354.18         3.6997
   354.32         3.6262
   354.46         3.5412
   354.60         3.4516
   354.74         3.3626
   354.88         3.2778
   355.02         3.1995
   355.16         3.1278
   355.30         3.0600
   355.44         2.9916
   355.58         2.9185
   355.72         2.8384
   355.86         2.7504
   356.00         2.6535
   356.14         2.5478
   356.28         2.4356
   356.42         2.3221
   356.56         2.2135
   356.70         2.1148
   356.84         2.0285
   356.98         1.9554
   357.12         1.8941
   357.26         1.8414
   357.40         1.7943
   357.54         1.7506
   357.68         1.7088
   357.82         1.6678
   357.96         1.6291
   358.10         1.5965
   358.24         1.5750
   358.38         1.5702
   358.52         1.5877
   358.66         1.6338
   358.80         1.7140
   358.94         1.8313
   359.08         1.9833
   359.22         2.1621
   359.36         2.3559
   359.50         2.5516
   359.64         2.7365
   359.78         2.8991
   359.92         3.0300
   360.06         3.1226
   360.20         3.1746
   360.34         3.1893
   360.48         3.1756
   360.62         3.1453
   360.76         3.1096
   360.90         3.0766
   361.04         3.0538
   361.18         3.0490
   361.32         3.0694
   361.46         3.1195
   361.60         3.2019
   361.74         3.3170
   361.88         3.4612
   362.02         3.6262
   362.16         3.8003
   362.30         3.9704
   362.44         4.1245
   362.58         4.2540
   362.72         4.3562
   362.86         4.4337
   363.00         4.4917
   363.14         4.5352
   363.28         4.5672
   363.42         4.5883
   363.56         4.5986
   363.70         4.5988
   363.84         4.5900
   363.98         4.5735
   364.12         4.5515
   364.26         4.5264
   364.40         4.5002
   364.54         4.4743
   364.68         4.4542
   364.82         4.4517
   364.96         4.4813
   365.10         4.5560
   365.24         4.6830
   365.38         4.8623
   365.52         5.0853
   365.66         5.3361
   365.80         5.5943
   365.94         5.8378
   366.08         6.0465
   366.22         6.2068
   366.36         6.3134
   366.50         6.3696
   366.64         6.3829
   366.78         6.3610
   366.92         6.3102
   367.06         6.2361
   367.20         6.1458
   367.34         6.0474
   367.48         5.9456
   367.62         5.8401
   367.76         5.7284
   367.90         5.6112
   368.04         5.4943
   368.18         5.3884
   368.32         5.3039
   368.46         5.2480
   368.60         5.2251
   368.74         5.2384
   368.88         5.2905
   369.02         5.3801
   369.16         5.5000
   369.30         5.6361
   369.44         5.7688
   369.58         5.8781
   369.72         5.9470
   369.86         5.9638
   370.00         5.9232
   370.14         5.8282
   370.28         5.6924
   370.42         5.5372
   370.56         5.3848
   370.70         5.2502
   370.84         5.1373
   370.98         5.0402
   371.12         4.9493
   371.26         4.8581
   371.40         4.7634
   371.54         4.6634
   371.68         4.5554
   371.82         4.4353
   371.96         4.2999
   372.10         4.1491
   372.24         3.9862
   372.38         3.8171
   372.52         3.6488
   372.66         3.4886
   372.80         3.3434
   372.94         3.2170
   373.08         3.1078
   373.22         3.0092
   373.36         2.9144
   373.50         2.8194
   373.64         2.7255
   373.78         2.6376
   373.92         2.5616
   374.06         2.5024
   374.20         2.4637
   374.34         2.4491
   374.48         2.4598
   374.62         2.4941
   374.76         2.5461
   374.90         2.6092
   375.04         2.6782
   375.18         2.7504
   375.32         2.8242
   375.46         2.8980
   375.60         2.9690
   375.74         3.0336
   375.88         3.0919
   376.02         3.1495
   376.16         3.2150
   376.30         3.2981
   376.44         3.4066
   376.58         3.5460
   376.72         3.7191
   376.86         3.9261
   377.00         4.1612
   377.14         4.4128
   377.28         4.6646
   377.42         4.8986
   377.56         5.0974
   377.70         5.2454
   377.84         5.3310
   377.98         5.3486
   378.12         5.2991
   378.26         5.1886
   378.40         5.0272
   378.54         4.8275
   378.68         4.6028
   378.82         4.3659
   378.96         4.1305
   379.10         3.9121
   379.24         3.7262
   379.38         3.5855
   379.52         3.4972
   379.66         3.4607
   379.80         3.4697
   379.94         3.5129
   380.08         3.5769
   380.22         3.6485
   380.36         3.7155
   380.50         3.7669
   380.64         3.7930
   380.78         3.7852
   380.92         3.7379
   381.06         3.6499
   381.20         3.5245
   381.34         3.3685
   381.48         3.1912
   381.62         3.0044
   381.76         2.8200
   381.90         2.6483
   382.04         2.4968
   382.18         2.3699
   382.32         2.2708
   382.46         2.2000
   382.60         2.1563
   382.74         2.1357
   382.88         2.1323
   383.02         2.1406
   383.16         2.1575
   383.30         2.1821
   383.44         2.2141
   383.58         2.2534
   383.72         2.2990
   383.86         2.3489
   384.00         2.4011
   384.14         2.4545
   384.28         2.5078
   384.42         2.5580
   384.56         2.6012
   384.70         2.6330
   384.84         2.6502
   384.98         2.6522
   385.12         2.6410
   385.26         2.6201
   385.40         2.5932
   385.54         2.5640
   385.68         2.5367
   385.82         2.5145
   385.96         2.4989
   386.10         2.4900
   386.24         2.4883
   386.38         2.4946
   386.52         2.5084
   386.66         2.5281
   386.80         2.5509
   386.94         2.5742
   387.08         2.5984
   387.22         2.6265
   387.36         2.6623
   387.50         2.7089
   387.64         2.7689
   387.78         2.8458
   387.92         2.9442
   388.06         3.0677
   388.20         3.2182
   388.34         3.3938
   388.48         3.5894
   388.62         3.7971
   388.76         4.0082
   388.90         4.2136
   389.04         4.4047
   389.18         4.5737
   389.32         4.7143
   389.46         4.8241
   389.60         4.9056
   389.74         4.9655
   389.88         5.0116
   390.02         5.0505
   390.16         5.0883
   390.30         5.1311
   390.44         5.1832
   390.58         5.2434
   390.72         5.3038
   390.86         5.3524
   391.00         5.3772
   391.14         5.3688
   391.28         5.3220
   391.42         5.2346
   391.56         5.1064
   391.70         4.9378
   391.84         4.7301
   391.98         4.4866
   392.12         4.2135
   392.26         3.9195
   392.40         3.6146
   392.54         3.3098
   392.68         3.0167
   392.82         2.7485
   392.96         2.5185
   393.10         2.3382
   393.24         2.2156
   393.38         2.1569
   393.52         2.1664
   393.66         2.2459
   393.80         2.3936
   393.94         2.6043
   394.08         2.8681
   394.22         3.1717
   394.36         3.5003
   394.50         3.8383
   394.64         4.1698
   394.78         4.4786
   394.92         4.7483
   395.06         4.9637
   395.20         5.1109
   395.34         5.1793
   395.48         5.1616
   395.62         5.0557
   395.76         4.8658
   395.90         4.6043
   396.04         4.2913
   396.18         3.9537
   396.32         3.6226
   396.46         3.3314
   396.60         3.1122
   396.74         2.9923
   396.88         2.9908
   397.02         3.1164
   397.16         3.3651
   397.30         3.7231
   397.44         4.1706
   397.58         4.6837
   397.72         5.2367
   397.86         5.8035
   398.00         6.3596
   398.14         6.8841
   398.28         7.3617
   398.42         7.7830
   398.56         8.1454
   398.70         8.4537
   398.84         8.7194
   398.98         8.9576
   399.12         9.1818
   399.26         9.4000
   399.40         9.6129
   399.54         9.8174
   399.68         10.0109
   399.82         10.1944
   399.96         10.3708
   400.10         10.5434
   400.24         10.7147
   400.38         10.8858
   400.52         11.0570
   400.66         11.2286
   400.80         11.4000
   400.94         11.5691
   401.08         11.7316
   401.22         11.8809
   401.36         12.0110
   401.50         12.1175
   401.64         12.1973
   401.78         12.2462
   401.92         12.2561
   402.06         12.2186
   402.20         12.1288
   402.34         11.9889
   402.48         11.8091
   402.62         11.6060
   402.76         11.3996
   402.90         11.2100
   403.04         11.0529
   403.18         10.9355
   403.32         10.8547
   403.46         10.7996
   403.60         10.7577
   403.74         10.7218
   403.88         10.6923
   404.02         10.6748
   404.16         10.6751
   404.30         10.6923
   404.44         10.7190
   404.58         10.7458
   404.72         10.7687
   404.86         10.7917
   405.00         10.8221
   405.14         10.8620
   405.28         10.9043
   405.42         10.9356
   405.56         10.9432
   405.70         10.9185
   405.84         10.8587
   405.98         10.7679
   406.12         10.6591
   406.26         10.5513
   406.40         10.4620
   406.54         10.3991
   406.68         10.3614
   406.82         10.3453
   406.96         10.3502
   407.10         10.3799
   407.24         10.4402
   407.38         10.5372
   407.52         10.6765
   407.66         10.8616
   407.80         11.0934
   407.94         11.3704
   408.08         11.6865
   408.22         12.0284
   408.36         12.3747
   408.50         12.6969
   408.64         12.9646
   408.78         13.1509
   408.92         13.2355
   409.06         13.2064
   409.20         13.0652
   409.34         12.8302
   409.48         12.5328
   409.62         12.2079
   409.76         11.8865
   409.90         11.5922
   410.04         11.3422
   410.18         11.1470
   410.32         11.0105
   410.46         10.9292
   410.60         10.8919
   410.74         10.8826
   410.88         10.8838
   411.02         10.8794
   411.16         10.8573
   411.30         10.8124
   411.44         10.7473
   411.58         10.6700
   411.72         10.5901
   411.86         10.5161
   412.00         10.4519
   412.14         10.3954
   412.28         10.3406
   412.42         10.2824
   412.56         10.2186
   412.70         10.1511
   412.84         10.0829
   412.98         10.0146
   413.12         9.9415
   413.26         9.8550
   413.40         9.7484
   413.54         9.6215
   413.68         9.4789
   413.82         9.3262
   413.96         9.1692
   414.10         9.0126
   414.24         8.8595
   414.38         8.7118
   414.52         8.5737
   414.66         8.4536
   414.80         8.3633
   414.94         8.3142
   415.08         8.3135
   415.22         8.3609
   415.36         8.4484
   415.50         8.5625
   415.64         8.6874
   415.78         8.8106
   415.92         8.9244
   416.06         9.0233
   416.20         9.1004
   416.34         9.1477
   416.48         9.1597
   416.62         9.1357
   416.76         9.0807
   416.90         9.0038
   417.04         8.9181
   417.18         8.8396
   417.32         8.7850
   417.46         8.7668
   417.60         8.7903
   417.74         8.8540
   417.88         8.9523
   418.02         9.0773
   418.16         9.2210
   418.30         9.3753
   418.44         9.5297
   418.58         9.6707
   418.72         9.7849
   418.86         9.8630
   419.00         9.9023
   419.14         9.9045
   419.28         9.8757
   419.42         9.8267
   419.56         9.7725
   419.70         9.7300
   419.84         9.7145
   419.98         9.7369
   420.12         9.7999
   420.26         9.8984
   420.40         10.0260
   420.54         10.1813
   420.68         10.3692
   420.82         10.5983
   420.96         10.8723
   421.10         11.1846
   421.24         11.5162
   421.38         11.8364
   421.52         12.1078
   421.66         12.2982
   421.80         12.3919
   421.94         12.3927
   422.08         12.3198
   422.22         12.1983
   422.36         12.0547
   422.50         11.9148
   422.64         11.8028
   422.78         11.7416
   422.92         11.7530
   423.06         11.8586
   423.20         12.0750
   423.34         12.4075
   423.48         12.8417
   423.62         13.3408
   423.76         13.8535
   423.90         14.3258
   424.04         14.7142
   424.18         14.9942
   424.32         15.1608
   424.46         15.2221
   424.60         15.1917
   424.74         15.0821
   424.88         14.9051
   425.02         14.6791
   425.16         14.4337
   425.30         14.2082
   425.44         14.0433
   425.58         13.9709
   425.72         14.0046
   425.86         14.1345
   426.00         14.3267
   426.14         14.5310
   426.28         14.6950
   426.42         14.7816
   426.56         14.7772
   426.70         14.6901
   426.84         14.5425
   426.98         14.3633
   427.12         14.1841
   427.26         14.0337
   427.40         13.9339
   427.54         13.8979
   427.68         13.9295
   427.82         14.0197
   427.96         14.1465
   428.10         14.2809
   428.24         14.3936
   428.38         14.4597
   428.52         14.4631
   428.66         14.3987
   428.80         14.2711
   428.94         14.0922
   429.08         13.8772
   429.22         13.6386
   429.36         13.3818
   429.50         13.1053
   429.64         12.8058
   429.78         12.4840
   429.92         12.1485
   430.06         11.8178
   430.20         11.5203
   430.34         11.2964
   430.48         11.1983
   430.62         11.2808
   430.76         11.5840
   430.90         12.1182
   431.04         12.8580
   431.18         13.7463
   431.32         14.7036
   431.46         15.6454
   431.60         16.5023
   431.74         17.2301
   431.88         17.8065
   432.02         18.2284
   432.16         18.5124
   432.30         18.6944
   432.44         18.8207
   432.58         18.9331
   432.72         19.0583
   432.86         19.2087
   433.00         19.3859
   433.14         19.5831
   433.28         19.7840
   433.42         19.9653
   433.56         20.1070
   433.70         20.1998
   433.84         20.2461
   433.98         20.2565
   434.12         20.2492
   434.26         20.2465
   434.40         20.2674
   434.54         20.3193
   434.68         20.3988
   434.82         20.4955
   434.96         20.5950
   435.10         20.6830
   435.24         20.7514
   435.38         20.8055
   435.52         20.8608
   435.66         20.9332
   435.80         21.0314
   435.94         21.1543
   436.08         21.2892
   436.22         21.4135
   436.36         21.4993
   436.50         21.5219
   436.64         21.4693
   436.78         21.3453
   436.92         21.1600
   437.06         20.9176
   437.20         20.6113
   437.34         20.2340
   437.48         19.7933
   437.62         19.3119
   437.76         18.8189
   437.90         18.3427
   438.04         17.9081
   438.18         17.5368
   438.32         17.2507
   438.46         17.0739
   438.60         17.0280
   438.74         17.1224
   438.88         17.3513
   439.02         17.6980
   439.16         18.1311
   439.30         18.5989
   439.44         19.0345
   439.58         19.3737
   439.72         19.5770
   439.86         19.6410
   440.00         19.5958
   440.14         19.4865
   440.28         19.3522
   440.42         19.2216
   440.56         19.1209
   440.70         19.0788
   440.84         19.1203
   440.98         19.2576
   441.12         19.4854
   441.26         19.7830
   441.40         20.1211
   441.54         20.4692
   441.68         20.7986
   441.82         21.0837
   441.96         21.3079
   442.10         21.4702
   442.24         21.5794
   442.38         21.6466
   442.52         21.6832
   442.66         21.7001
   442.80         21.7072
   442.94         21.7106
   443.08         21.7164
   443.22         21.7360
   443.36         21.7834
   443.50         21.8703
   443.64         22.0033
   443.78         22.1853
   443.92         22.4157
   444.06         22.6862
   444.20         22.9761
   444.34         23.2542
   444.48         23.4864
   444.62         23.6416
   444.76         23.6944
   444.90         23.6275
   445.04         23.4389
   445.18         23.1471
   445.32         22.7842
   445.46         22.3850
   445.60         21.9837
   445.74         21.6172
   445.88         21.3247
   446.02         21.1410
   446.16         21.0903
   446.30         21.1836
   446.44         21.4198
   446.58         21.7865
   446.72         22.2578
   446.86         22.7938
   447.00         23.3484
   447.14         23.8807
   447.28         24.3642
   447.42         24.7867
   447.56         25.1430
   447.70         25.4304
   447.84         25.6455
   447.98         25.7853
   448.12         25.8472
   448.26         25.8283
   448.40         25.7308
   448.54         25.5675
   448.68         25.3640
   448.82         25.1526
   448.96         24.9647
   449.10         24.8276
   449.24         24.7661
   449.38         24.7991
   449.52         24.9378
   449.66         25.1890
   449.80         25.5540
   449.94         26.0210
   450.08         26.5555
   450.22         27.1036
   450.36         27.6088
   450.50         28.0263
   450.64         28.3284
   450.78         28.5035
   450.92         28.5558
   451.06         28.5044
   451.20         28.3759
   451.34         28.1938
   451.48         27.9698
   451.62         27.7054
   451.76         27.3986
   451.90         27.0476
   452.04         26.6515
   452.18         26.2123
   452.32         25.7391
   452.46         25.2508
   452.60         24.7746
   452.74         24.3393
   452.88         23.9735
   453.02         23.7058
   453.16         23.5605
   453.30         23.5502
   453.44         23.6721
   453.58         23.9056
   453.72         24.2151
   453.86         24.5576
   454.00         24.8913
   454.14         25.1818
   454.28         25.4088
   454.42         25.5718
   454.56         25.6886
   454.70         25.7868
   454.84         25.8936
   454.98         26.0314
   455.12         26.2143
   455.26         26.4429
   455.40         26.7056
   455.54         26.9898
   455.68         27.2857
   455.82         27.5802
   455.96         27.8541
   456.10         28.0886
   456.24         28.2721
   456.38         28.3987
   456.52         28.4677
   456.66         28.4829
   456.80         28.4507
   456.94         28.3831
   457.08         28.2979
   457.22         28.2114
   457.36         28.1312
   457.50         28.0591
   457.64         28.0004
   457.78         27.9653
   457.92         27.9639
   458.06         28.0016
   458.20         28.0743
   458.34         28.1682
   458.48         28.2645
   458.62         28.3469
   458.76         28.4053
   458.90         28.4328
   459.04         28.4229
   459.18         28.3712
   459.32         28.2780
   459.46         28.1557
   459.60         28.0361
   459.74         27.9630
   459.88         27.9749
   460.02         28.0968
   460.16         28.3419
   460.30         28.7112
   460.44         29.1900
   460.58         29.7487
   460.72         30.3500
   460.86         30.9578
   461.00         31.5418
   461.14         32.0770
   461.28         32.5414
   461.42         32.9171
   461.56         33.1920
   461.70         33.3643
   461.84         33.4440
   461.98         33.4513
   462.12         33.4097
   462.26         33.3359
   462.40         33.2318
   462.54         33.0887
   462.68         32.8963
   462.82         32.6504
   462.96         32.3548
   463.10         32.0194
   463.24         31.6530
   463.38         31.2603
   463.52         30.8438
   463.66         30.4100
   463.80         29.9720
   463.94         29.5508
   464.08         29.1711
   464.22         28.8556
   464.36         28.6188
   464.50         28.4695
   464.64         28.4150
   464.78         28.4622
   464.92         28.6131
   465.06         28.8597
   465.20         29.1804
   465.34         29.5416
   465.48         29.8999
   465.62         30.2075
   465.76         30.4240
   465.90         30.5245
   466.04         30.5049
   466.18         30.3812
   466.32         30.1855
   466.46         29.9608
   466.60         29.7488
   466.74         29.5796
   466.88         29.4690
   467.02         29.4263
   467.16         29.4590
   467.30         29.5675
   467.44         29.7359
   467.58         29.9319
   467.72         30.1180
   467.86         30.2640
   468.00         30.3530
   468.14         30.3833
   468.28         30.3708
   468.42         30.3453
   468.56         30.3337
   468.70         30.3447
   468.84         30.3716
   468.98         30.4037
   469.12         30.4292
   469.26         30.4343
   469.40         30.4056
   469.54         30.3360
   469.68         30.2264
   469.82         30.0827
   469.96         29.9153
   470.10         29.7381
   470.24         29.5649
   470.38         29.4111
   470.52         29.2961
   470.66         29.2423
   470.80         29.2715
   470.94         29.3976
   471.08         29.6213
   471.22         29.9280
   471.36         30.2941
   471.50         30.6918
   471.64         31.0848
   471.78         31.4310
   471.92         31.6934
   472.06         31.8468
   472.20         31.8797
   472.34         31.7944
   472.48         31.6090
   472.62         31.3558
   472.76         31.0744
   472.90         30.8053
   473.04         30.5857
   473.18         30.4462
   473.32         30.4061
   473.46         30.4703
   473.60         30.6302
   473.74         30.8678
   473.88         31.1592
   474.02         31.4744
   474.16         31.7788
   474.30         32.0426
   474.44         32.2509
   474.58         32.4030
   474.72         32.5022
   474.86         32.5519
   475.00         32.5556
   475.14         32.5158
   475.28         32.4333
   475.42         32.3075
   475.56         32.1397
   475.70         31.9396
   475.84         31.7280
   475.98         31.5316
   476.12         31.3753
   476.26         31.2805
   476.40         31.2638
   476.54         31.3330
   476.68         31.4862
   476.82         31.7134
   476.96         31.9968
   477.10         32.3097
   477.24         32.6191
   477.38         32.8932
   477.52         33.1037
   477.66         33.2277
   477.80         33.2531
   477.94         33.1830
   478.08         33.0391
   478.22         32.8586
   478.36         32.6846
   478.50         32.5534
   478.64         32.4860
   478.78         32.4895
   478.92         32.5619
   479.06         32.6958
   479.20         32.8791
   479.34         33.0933
   479.48         33.3134
   479.62         33.5131
   479.76         33.6719
   479.90         33.7822
   480.04         33.8464
   480.18         33.8722
   480.32         33.8718
   480.46         33.8625
   480.60         33.8640
   480.74         33.8961
   480.88         33.9712
   481.02         34.0882
   481.16         34.2337
   481.30         34.3905
   481.44         34.5441
   481.58         34.6846
   481.72         34.8046
   481.86         34.8939
   482.00         34.9370
   482.14         34.9200
   482.28         34.8391
   482.42         34.7041
   482.56         34.5332
   482.70         34.3455
   482.84         34.1575
   482.98         33.9830
   483.12         33.8328
   483.26         33.7133
   483.40         33.6260
   483.54         33.5664
   483.68         33.5252
   483.82         33.4930
   483.96         33.4639
   484.10         33.4346
   484.24         33.4015
   484.38         33.3578
   484.52         33.2963
   484.66         33.2138
   484.80         33.1090
   484.94         32.9777
   485.08         32.8126
   485.22         32.6069
   485.36         32.3596
   485.50         32.0780
   485.64         31.7771
   485.78         31.4754
   485.92         31.1897
   486.06         30.9310
   486.20         30.7055
   486.34         30.5171
   486.48         30.3718
   486.62         30.2775
   486.76         30.2416
   486.90         30.2669
   487.04         30.3490
   487.18         30.4781
   487.32         30.6378
   487.46         30.8045
   487.60         30.9554
   487.74         31.0771
   487.88         31.1640
   488.02         31.2142
   488.16         31.2316
   488.30         31.2290
   488.44         31.2288
   488.58         31.2572
   488.72         31.3401
   488.86         31.4995
   489.00         31.7496
   489.14         32.0910
   489.28         32.5099
   489.42         32.9805
   489.56         33.4679
   489.70         33.9316
   489.84         34.3298
   489.98         34.6261
   490.12         34.7995
   490.26         34.8492
   490.40         34.7924
   490.54         34.6568
   490.68         34.4690
   490.82         34.2459
   490.96         33.9930
   491.10         33.7107
   491.24         33.4012
   491.38         33.0725
   491.52         32.7425
   491.66         32.4409
   491.80         32.2040
   491.94         32.0677
   492.08         32.0548
   492.22         32.1663
   492.36         32.3826
   492.50         32.6723
   492.64         33.0006
   492.78         33.3314
   492.92         33.6316
   493.06         33.8761
   493.20         34.0475
   493.34         34.1400
   493.48         34.1658
   493.62         34.1578
   493.76         34.1612
   493.90         34.2193
   494.04         34.3600
   494.18         34.5932
   494.32         34.9106
   494.46         35.2811
   494.60         35.6525
   494.74         35.9665
   494.88         36.1825
   495.02         36.2872
   495.16         36.2870
   495.30         36.1974
   495.44         36.0388
   495.58         35.8384
   495.72         35.6236
   495.86         35.4163
   496.00         35.2350
   496.14         35.0973
   496.28         35.0185
   496.42         35.0058
   496.56         35.0526
   496.70         35.1363
   496.84         35.2239
   496.98         35.2776
   497.12         35.2590
   497.26         35.1409
   497.40         34.9178
   497.54         34.6019
   497.68         34.2122
   497.82         33.7691
   497.96         33.2986
   498.10         32.8369
   498.24         32.4257
   498.38         32.1022
   498.52         31.8937
   498.66         31.8126
   498.80         31.8522
   498.94         31.9849
   499.08         32.1696
   499.22         32.3600
   499.36         32.5137
   499.50         32.5990
   499.64         32.6002
   499.78         32.5169
   499.92         32.3584
   500.06         32.1388
   500.20         31.8724
   500.34         31.5733
   500.48         31.2558
   500.62         30.9352
   500.76         30.6248
   500.90         30.3331
   501.04         30.0678
   501.18         29.8385
   501.32         29.6556
   501.46         29.5277
   501.60         29.4604
   501.74         29.4581
   501.88         29.5260
   502.02         29.6709
   502.16         29.8989
   502.30         30.2084
   502.44         30.5829
   502.58         30.9919
   502.72         31.3974
   502.86         31.7591
   503.00         32.0412
   503.14         32.2226
   503.28         32.3014
   503.42         32.2916
   503.56         32.2181
   503.70         32.1080
   503.84         31.9845
   503.98         31.8673
   504.12         31.7744
   504.26         31.7240
   504.40         31.7354
   504.54         31.8249
   504.68         31.9976
   504.82         32.2445
   504.96         32.5458
   505.10         32.8739
   505.24         33.1938
   505.38         33.4704
   505.52         33.6778
   505.66         33.8055
   505.80         33.8549
   505.94         33.8288
   506.08         33.7272
   506.22         33.5495
   506.36         33.3015
   506.50         32.9981
   506.64         32.6599
   506.78         32.3056
   506.92         31.9488
   507.06         31.5986
   507.20         31.2618
   507.34         30.9450
   507.48         30.6552
   507.62         30.4004
   507.76         30.1890
   507.90         30.0334
   508.04         29.9538
   508.18         29.9730
   508.32         30.1025
   508.46         30.3340
   508.60         30.6416
   508.74         30.9870
   508.88         31.3263
   509.02         31.6177
   509.16         31.8260
   509.30         31.9263
   509.44         31.9071
   509.58         31.7727
   509.72         31.5413
   509.86         31.2420
   510.00         30.9103
   510.14         30.5827
   510.28         30.2941
   510.42         30.0759
   510.56         29.9509
   510.70         29.9281
   510.84         29.9979
   510.98         30.1341
   511.12         30.3008
   511.26         30.4595
   511.40         30.5759
   511.54         30.6230
   511.68         30.5824
   511.82         30.4455
   511.96         30.2174
   512.10         29.9180
   512.24         29.5798
   512.38         29.2429
   512.52         28.9465
   512.66         28.7211
   512.80         28.5860
   512.94         28.5485
   513.08         28.6006
   513.22         28.7194
   513.36         28.8703
   513.50         29.0140
   513.64         29.1153
   513.78         29.1501
   513.92         29.1086
   514.06         28.9937
   514.20         28.8191
   514.34         28.6092
   514.48         28.3982
   514.62         28.2219
   514.76         28.1092
   514.90         28.0771
   515.04         28.1282
   515.18         28.2491
   515.32         28.4092
   515.46         28.5633
   515.60         28.6578
   515.74         28.6449
   515.88         28.4923
   516.02         28.1816
   516.16         27.7117
   516.30         27.1073
   516.44         26.4211
   516.58         25.7229
   516.72         25.0866
   516.86         24.5781
   517.00         24.2400
   517.14         24.0808
   517.28         24.0838
   517.42         24.2240
   517.56         24.4769
   517.70         24.8205
   517.84         25.2319
   517.98         25.6835
   518.12         26.1480
   518.26         26.6081
   518.40         27.0609
   518.54         27.5102
   518.68         27.9621
   518.82         28.4263
   518.96         28.9103
   519.10         29.4078
   519.24         29.8895
   519.38         30.3067
   519.52         30.6046
   519.66         30.7392
   519.80         30.6965
   519.94         30.5026
   520.08         30.2119
   520.22         29.8850
   520.36         29.5733
   520.50         29.3155
   520.64         29.1447
   520.78         29.0944
   520.92         29.1931
   521.06         29.4533
   521.20         29.8591
   521.34         30.3640
   521.48         30.9006
   521.62         31.3996
   521.76         31.8094
   521.90         32.1023
   522.04         32.2723
   522.18         32.3341
   522.32         32.3210
   522.46         32.2808
   522.60         32.2633
   522.74         32.3066
   522.88         32.4321
   523.02         32.6452
   523.16         32.9397
   523.30         33.2985
   523.44         33.6896
   523.58         34.0656
   523.72         34.3744
   523.86         34.5732
   524.00         34.6395
   524.14         34.5782
   524.28         34.4154
   524.42         34.1861
   524.56         33.9240
   524.70         33.6598
   524.84         33.4228
   524.98         33.2367
   525.12         33.1101
   525.26         33.0304
   525.40         32.9704
   525.54         32.8985
   525.68         32.7811
   525.82         32.5833
   525.96         32.2800
   526.10         31.8684
   526.24         31.3715
   526.38         30.8351
   526.52         30.3222
   526.66         29.9034
   526.80         29.6426
   526.94         29.5836
   527.08         29.7420
   527.22         30.1068
   527.36         30.6451
   527.50         31.3095
   527.64         32.0456
   527.78         32.8004
   527.92         33.5311
   528.06         34.2071
   528.20         34.8058
   528.34         35.3067
   528.48         35.6931
   528.62         35.9562
   528.76         36.0947
   528.90         36.1114
   529.04         36.0180
   529.18         35.8401
   529.32         35.6136
   529.46         35.3772
   529.60         35.1696
   529.74         35.0301
   529.88         34.9964
   530.02         35.0962
   530.16         35.3381
   530.30         35.7070
   530.44         36.1668
   530.58         36.6668
   530.72         37.1485
   530.86         37.5565
   531.00         37.8482
   531.14         37.9980
   531.28         38.0000
   531.42         37.8636
   531.56         37.6027
   531.70         37.2309
   531.84         36.7653
   531.98         36.2322
   532.12         35.6663
   532.26         35.1088
   532.40         34.6023
   532.54         34.1841
   532.68         33.8798
   532.82         33.7007
   532.96         33.6442
   533.10         33.6983
   533.24         33.8474
   533.38         34.0731
   533.52         34.3531
   533.66         34.6601
   533.80         34.9644
   533.94         35.2428
   534.08         35.4849
   534.22         35.6952
   534.36         35.8949
   534.50         36.1170
   534.64         36.3926
   534.78         36.7371
   534.92         37.1443
   535.06         37.5891
   535.20         38.0343
   535.34         38.4404
   535.48         38.7732
   535.62         39.0076
   535.76         39.1260
   535.90         39.1156
   536.04         38.9724
   536.18         38.7098
   536.32         38.3610
   536.46         37.9747
   536.60         37.6055
   536.74         37.3004
   536.88         37.0892
   537.02         36.9850
   537.16         36.9867
   537.30         37.0807
   537.44         37.2419
   537.58         37.4371
   537.72         37.6293
   537.86         37.7828
   538.00         37.8659
   538.14         37.8534
   538.28         37.7292
   538.42         37.4899
   538.56         37.1480
   538.70         36.7331
   538.84         36.2867
   538.98         35.8496
   539.12         35.4535
   539.26         35.1131
   539.40         34.8259
   539.54         34.5815
   539.68         34.3699
   539.82         34.1846
   539.96         34.0238
   540.10         33.8918
   540.24         33.8006
   540.38         33.7680
   540.52         33.8129
   540.66         33.9511
   540.80         34.1896
   540.94         34.5251
   541.08         34.9453
   541.22         35.4311
   541.36         35.9590
   541.50         36.4984
   541.64         37.0086
   541.78         37.4416
   541.92         37.7521
   542.06         37.9133
   542.20         37.9206
   542.34         37.7850
   542.48         37.5315
   542.62         37.1996
   542.76         36.8410
   542.90         36.5116
   543.04         36.2585
   543.18         36.1131
   543.32         36.0859
   543.46         36.1641
   543.60         36.3202
   543.74         36.5237
   543.88         36.7464
   544.02         36.9623
   544.16         37.1446
   544.30         37.2652
   544.44         37.3021
   544.58         37.2507
   544.72         37.1269
   544.86         36.9587
   545.00         36.7782
   545.14         36.6194
   545.28         36.5121
   545.42         36.4752
   545.56         36.5108
   545.70         36.6054
   545.84         36.7375
   545.98         36.8802
   546.12         37.0086
   546.26         37.1064
   546.40         37.1609
   546.54         37.1571
   546.68         37.0817
   546.82         36.9291
   546.96         36.7031
   547.10         36.4209
   547.24         36.1122
   547.38         35.8121
   547.52         35.5494
   547.66         35.3435
   547.80         35.2068
   547.94         35.1469
   548.08         35.1658
   548.22         35.2569
   548.36         35.4069
   548.50         35.5983
   548.64         35.8118
   548.78         36.0324
   548.92         36.2491
   549.06         36.4517
   549.20         36.6334
   549.34         36.7889
   549.48         36.9099
   549.62         36.9878
   549.76         37.0194
   549.90         37.0068
   550.04         36.9511
   550.18         36.8488
   550.32         36.6974
   550.46         36.5034
   550.60         36.2843
   550.74         36.0655
   550.88         35.8774
   551.02         35.7494
   551.16         35.7037
   551.30         35.7506
   551.44         35.8868
   551.58         36.0924
   551.72         36.3362
   551.86         36.5866
   552.00         36.8197
   552.14         37.0213
   552.28         37.1833
   552.42         37.3000
   552.56         37.3665
   552.70         37.3833
   552.84         37.3615
   552.98         37.3231
   553.12         37.2943
   553.26         37.2975
   553.40         37.3455
   553.54         37.4395
   553.68         37.5741
   553.82         37.7413
   553.96         37.9318
   554.10         38.1352
   554.24         38.3420
   554.38         38.5450
   554.52         38.7407
   554.66         38.9257
   554.80         39.0923
   554.94         39.2308
   555.08         39.3317
   555.22         39.3886
   555.36         39.3978
   555.50         39.3557
   555.64         39.2581
   555.78         39.1033
   555.92         38.8972
   556.06         38.6536
   556.20         38.3925
   556.34         38.1384
   556.48         37.9141
   556.62         37.7360
   556.76         37.6138
   556.90         37.5515
   557.04         37.5488
   557.18         37.6009
   557.32         37.6956
   557.46         37.8110
   557.60         37.9169
   557.74         37.9788
   557.88         37.9669
   558.02         37.8643
   558.16         37.6699
   558.30         37.4012
   558.44         37.0920
   558.58         36.7827
   558.72         36.5075
   558.86         36.2899
   559.00         36.1420
   559.14         36.0660
   559.28         36.0603
   559.42         36.1228
   559.56         36.2518
   559.70         36.4415
   559.84         36.6796
   559.98         36.9496
   560.12         37.2350
   560.26         37.5195
   560.40         37.7860
   560.54         38.0202
   560.68         38.2104
   560.82         38.3477
   560.96         38.4262
   561.10         38.4407
   561.24         38.3820
   561.38         38.2386
   561.52         38.0089
   561.66         37.7114
   561.80         37.3844
   561.94         37.0768
   562.08         36.8324
   562.22         36.6795
   562.36         36.6281
   562.50         36.6734
   562.64         36.7989
   562.78         36.9784
   562.92         37.1799
   563.06         37.3735
   563.20         37.5390
   563.34         37.6654
   563.48         37.7477
   563.62         37.7851
   563.76         37.7797
   563.90         37.7377
   564.04         37.6744
   564.18         37.6138
   564.32         37.5774
   564.46         37.5736
   564.60         37.5934
   564.74         37.6137
   564.88         37.6094
   565.02         37.5623
   565.16         37.4639
   565.30         37.3162
   565.44         37.1316
   565.58         36.9280
   565.72         36.7253
   565.86         36.5445
   566.00         36.4057
   566.14         36.3276
   566.28         36.3269
   566.42         36.4139
   566.56         36.5890
   566.70         36.8417
   566.84         37.1497
   566.98         37.4824
   567.12         37.8078
   567.26         38.0986
   567.40         38.3361
   567.54         38.5091
   567.68         38.6093
   567.82         38.6329
   567.96         38.5875
   568.10         38.4932
   568.24         38.3751
   568.38         38.2587
   568.52         38.1659
   568.66         38.1110
   568.80         38.0976
   568.94         38.1175
   569.08         38.1517
   569.22         38.1754
   569.36         38.1646
   569.50         38.0973
   569.64         37.9550
   569.78         37.7267
   569.92         37.4108
   570.06         37.0181
   570.20         36.5729
   570.34         36.1144
   570.48         35.6926
   570.62         35.3576
   570.76         35.1479
   570.90         35.0832
   571.04         35.1664
   571.18         35.3893
   571.32         35.7337
   571.46         36.1710
   571.60         36.6638
   571.74         37.1722
   571.88         37.6585
   572.02         38.0867
   572.16         38.4266
   572.30         38.6621
   572.44         38.7930
   572.58         38.8324
   572.72         38.8027
   572.86         38.7301
   573.00         38.6386
   573.14         38.5466
   573.28         38.4670
   573.42         38.4078
   573.56         38.3704
   573.70         38.3496
   573.84         38.3382
   573.98         38.3296
   574.12         38.3154
   574.26         38.2873
   574.40         38.2427
   574.54         38.1872
   574.68         38.1312
   574.82         38.0859
   574.96         38.0573
   575.10         38.0439
   575.24         38.0440
   575.38         38.0601
   575.52         38.0985
   575.66         38.1654
   575.80         38.2649
   575.94         38.3962
   576.08         38.5539
   576.22         38.7284
   576.36         38.9087
   576.50         39.0848
   576.64         39.2446
   576.78         39.3699
   576.92         39.4389
   577.06         39.4324
   577.20         39.3339
   577.34         39.1297
   577.48         38.8149
   577.62         38.4039
   577.76         37.9323
   577.90         37.4465
   578.04         36.9905
   578.18         36.6010
   578.32         36.3079
   578.46         36.1309
   578.60         36.0773
   578.74         36.1432
   578.88         36.3183
   579.02         36.5869
   579.16         36.9252
   579.30         37.2996
   579.44         37.6725
   579.58         38.0120
   579.72         38.3003
   579.86         38.5332
   580.00         38.7179
   580.14         38.8685
   580.28         38.9994
   580.42         39.1168
   580.56         39.2215
   580.70         39.3181
   580.84         39.4181
   580.98         39.5319
   581.12         39.6623
   581.26         39.8077
   581.40         39.9681
   581.54         40.1436
   581.68         40.3282
   581.82         40.5104
   581.96         40.6800
   582.10         40.8299
   582.24         40.9550
   582.38         41.0496
   582.52         41.1090
   582.66         41.1306
   582.80         41.1156
   582.94         41.0710
   583.08         41.0106
   583.22         40.9536
   583.36         40.9165
   583.50         40.9042
   583.64         40.9113
   583.78         40.9293
   583.92         40.9496
   584.06         40.9611
   584.20         40.9489
   584.34         40.8994
   584.48         40.8027
   584.62         40.6513
   584.76         40.4430
   584.90         40.1869
   585.04         39.9022
   585.18         39.6137
   585.32         39.3461
   585.46         39.1210
   585.60         38.9551
   585.74         38.8595
   585.88         38.8374
   586.02         38.8828
   586.16         38.9857
   586.30         39.1371
   586.44         39.3264
   586.58         39.5359
   586.72         39.7420
   586.86         39.9212
   587.00         40.0542
   587.14         40.1247
   587.28         40.1203
   587.42         40.0335
   587.56         39.8518
   587.70         39.5451
   587.84         39.0708
   587.98         38.3986
   588.12         37.5280
   588.26         36.4825
   588.40         35.2975
   588.54         34.0203
   588.68         32.7196
   588.82         31.4852
   588.96         30.4128
   589.10         29.5877
   589.24         29.0737
   589.38         28.9102
   589.52         29.1113
   589.66         29.6633
   589.80         30.5214
   589.94         31.6115
   590.08         32.8378
   590.22         34.0912
   590.36         35.2690
   590.50         36.2983
   590.64         37.1444
   590.78         37.7975
   590.92         38.2601
   591.06         38.5516
   591.20         38.7129
   591.34         38.7962
   591.48         38.8469
   591.62         38.8948
   591.76         38.9538
   591.90         39.0300
   592.04         39.1264
   592.18         39.2397
   592.32         39.3585
   592.46         39.4659
   592.60         39.5466
   592.74         39.5902
   592.88         39.5900
   593.02         39.5456
   593.16         39.4644
   593.30         39.3608
   593.44         39.2508
   593.58         39.1482
   593.72         39.0627
   593.86         39.0009
   594.00         38.9653
   594.14         38.9538
   594.28         38.9618
   594.42         38.9848
   594.56         39.0179
   594.70         39.0551
   594.84         39.0912
   594.98         39.1276
   595.12         39.1708
   595.26         39.2255
   595.40         39.2898
   595.54         39.3584
   595.68         39.4286
   595.82         39.5043
   595.96         39.5913
   596.10         39.6923
   596.24         39.8056
   596.38         39.9237
   596.52         40.0336
   596.66         40.1215
   596.80         40.1780
   596.94         40.1987
   597.08         40.1812
   597.22         40.1219
   597.36         40.0196
   597.50         39.8798
   597.64         39.7130
   597.78         39.5304
   597.92         39.3412
   598.06         39.1552
   598.20         38.9860
   598.34         38.8494
   598.48         38.7550
   598.62         38.7032
   598.76         38.6868
   598.90         38.6954
   599.04         38.7178
   599.18         38.7459
   599.32         38.7746
   599.46         38.7963
   599.60         38.7993
   599.74         38.7727
   599.88         38.7132
   600.02         38.6250
   600.16         38.5163
   600.30         38.3949
   600.44         38.2673
   600.58         38.1376
   600.72         38.0099
   600.86         37.8902
   601.00         37.7841
   601.14         37.6969
   601.28         37.6357
   601.42         37.6074
   601.56         37.6169
   601.70         37.6664
   601.84         37.7565
   601.98         37.8856
   602.12         38.0503
   602.26         38.2458
   602.40         38.4647
   602.54         38.6975
   602.68         38.9312
   602.82         39.1523
   602.96         39.3508
   603.10         39.5208
   603.24         39.6579
   603.38         39.7619
   603.52         39.8384
   603.66         39.8963
   603.80         39.9419
   603.94         39.9781
   604.08         40.0049
   604.22         40.0195
   604.36         40.0181
   604.50         39.9971
   604.64         39.9551
   604.78         39.8924
   604.92         39.8123
   605.06         39.7206
   605.20         39.6241
   605.34         39.5282
   605.48         39.4386
   605.62         39.3676
   605.76         39.3303
   605.90         39.3401
   606.04         39.4053
   606.18         39.5269
   606.32         39.6965
   606.46         39.8986
   606.60         40.1136
   606.74         40.3192
   606.88         40.4905
   607.02         40.6046
   607.16         40.6437
   607.30         40.5981
   607.44         40.4692
   607.58         40.2676
   607.72         40.0076
   607.86         39.7073
   608.00         39.3897
   608.14         39.0816
   608.28         38.8111
   608.42         38.6002
   608.56         38.4603
   608.70         38.3949
   608.84         38.3991
   608.98         38.4570
   609.12         38.5422
   609.26         38.6277
   609.40         38.6946
   609.54         38.7345
   609.68         38.7495
   609.82         38.7505
   609.96         38.7513
   610.10         38.7619
   610.24         38.7876
   610.38         38.8318
   610.52         38.8979
   610.66         38.9852
   610.80         39.0856
   610.94         39.1836
   611.08         39.2585
   611.22         39.2899
   611.36         39.2641
   611.50         39.1725
   611.64         39.0110
   611.78         38.7895
   611.92         38.5366
   612.06         38.2913
   612.20         38.0859
   612.34         37.9359
   612.48         37.8387
   612.62         37.7797
   612.76         37.7456
   612.90         37.7320
   613.04         37.7364
   613.18         37.7508
   613.32         37.7643
   613.46         37.7679
   613.60         37.7589
   613.74         37.7413
   613.88         37.7201
   614.02         37.6988
   614.16         37.6787
   614.30         37.6636
   614.44         37.6597
   614.58         37.6681
   614.72         37.6809
   614.86         37.6814
   615.00         37.6485
   615.14         37.5656
   615.28         37.4336
   615.42         37.2706
   615.56         37.0972
   615.70         36.9247
   615.84         36.7559
   615.98         36.5938
   616.12         36.4471
   616.26         36.3308
   616.40         36.2606
   616.54         36.2484
   616.68         36.3012
   616.82         36.4193
   616.96         36.5963
   617.10         36.8208
   617.24         37.0793
   617.38         37.3566
   617.52         37.6329
   617.66         37.8837
   617.80         38.0863
   617.94         38.2252
   618.08         38.2904
   618.22         38.2822
   618.36         38.2129
   618.50         38.1028
   618.64         37.9751
   618.78         37.8486
   618.92         37.7350
   619.06         37.6424
   619.20         37.5786
   619.34         37.5506
   619.48         37.5634
   619.62         37.6178
   619.76         37.7080
   619.90         37.8201
   620.04         37.9309
   620.18         38.0085
   620.32         38.0217
   620.46         37.9522
   620.60         37.7982
   620.74         37.5739
   620.88         37.2978
   621.02         36.9833
   621.16         36.6406
   621.30         36.2831
   621.44         35.9328
   621.58         35.6195
   621.72         35.3721
   621.86         35.2050
   622.00         35.1135
   622.14         35.0850
   622.28         35.1096
   622.42         35.1806
   622.56         35.2887
   622.70         35.4167
   622.84         35.5426
   622.98         35.6484
   623.12         35.7208
   623.26         35.7506
   623.40         35.7367
   623.54         35.6893
   623.68         35.6272
   623.82         35.5682
   623.96         35.5205
   624.10         35.4850
   624.24         35.4572
   624.38         35.4275
   624.52         35.3788
   624.66         35.2950
   624.80         35.1729
   624.94         35.0212
   625.08         34.8508
   625.22         34.6701
   625.36         34.4879
   625.50         34.3186
   625.64         34.1831
   625.78         34.1042
   625.92         34.1005
   626.06         34.1830
   626.20         34.3513
   626.34         34.5862
   626.48         34.8534
   626.62         35.1174
   626.76         35.3502
   626.90         35.5304
   627.04         35.6418
   627.18         35.6776
   627.32         35.6498
   627.46         35.5898
   627.60         35.5367
   627.74         35.5220
   627.88         35.5618
   628.02         35.6567
   628.16         35.7988
   628.30         35.9744
   628.44         36.1624
   628.58         36.3374
   628.72         36.4791
   628.86         36.5735
   629.00         36.6091
   629.14         36.5790
   629.28         36.4895
   629.42         36.3582
   629.56         36.2115
   629.70         36.0803
   629.84         35.9927
   629.98         35.9692
   630.12         36.0182
   630.26         36.1310
   630.40         36.2808
   630.54         36.4330
   630.68         36.5558
   630.82         36.6275
   630.96         36.6392
   631.10         36.5952
   631.24         36.5127
   631.38         36.4173
   631.52         36.3330
   631.66         36.2797
   631.80         36.2733
   631.94         36.3264
   632.08         36.4429
   632.22         36.6134
   632.36         36.8133
   632.50         37.0083
   632.64         37.1694
   632.78         37.2789
   632.92         37.3289
   633.06         37.3195
   633.20         37.2595
   633.34         37.1674
   633.48         37.0691
   633.62         36.9892
   633.76         36.9446
   633.90         36.9443
   634.04         36.9899
   634.18         37.0753
   634.32         37.1865
   634.46         37.3035
   634.60         37.3998
   634.74         37.4441
   634.88         37.4070
   635.02         37.2699
   635.16         37.0318
   635.30         36.7100
   635.44         36.3341
   635.58         35.9421
   635.72         35.5761
   635.86         35.2769
   636.00         35.0782
   636.14         35.0004
   636.28         35.0500
   636.42         35.2227
   636.56         35.5021
   636.70         35.8582
   636.84         36.2512
   636.98         36.6415
   637.12         36.9950
   637.26         37.2854
   637.40         37.4989
   637.54         37.6357
   637.68         37.7043
   637.82         37.7166
   637.96         37.6851
   638.10         37.6196
   638.24         37.5277
   638.38         37.4169
   638.52         37.2962
   638.66         37.1774
   638.80         37.0709
   638.94         36.9829
   639.08         36.9183
   639.22         36.8818
   639.36         36.8798
   639.50         36.9162
   639.64         36.9888
   639.78         37.0898
   639.92         37.2087
   640.06         37.3338
   640.20         37.4511
   640.34         37.5472
   640.48         37.6132
   640.62         37.6446
   640.76         37.6397
   640.90         37.6020
   641.04         37.5403
   641.18         37.4625
   641.32         37.3732
   641.46         37.2781
   641.60         37.1889
   641.74         37.1180
   641.88         37.0697
   642.02         37.0400
   642.16         37.0244
   642.30         37.0218
   642.44         37.0346
   642.58         37.0655
   642.72         37.1126
   642.86         37.1723
   643.00         37.2444
   643.14         37.3306
   643.28         37.4317
   643.42         37.5483
   643.56         37.6803
   643.70         37.8193
   643.84         37.9448
   643.98         38.0341
   644.12         38.0726
   644.26         38.0536
   644.40         37.9740
   644.54         37.8378
   644.68         37.6617
   644.82         37.4721
   644.96         37.2909
   645.10         37.1320
   645.24         37.0045
   645.38         36.9166
   645.52         36.8792
   645.66         36.9000
   645.80         36.9787
   645.94         37.1047
   646.08         37.2583
   646.22         37.4181
   646.36         37.5664
   646.50         37.6943
   646.64         37.8017
   646.78         37.8913
   646.92         37.9608
   647.06         38.0032
   647.20         38.0146
   647.34         37.9987
   647.48         37.9615
   647.62         37.9078
   647.76         37.8441
   647.90         37.7779
   648.04         37.7111
   648.18         37.6336
   648.32         37.5234
   648.46         37.3562
   648.60         37.1174
   648.74         36.8096
   648.88         36.4505
   649.02         36.0644
   649.16         35.6777
   649.30         35.3210
   649.44         35.0279
   649.58         34.8275
   649.72         34.7416
   649.86         34.7858
   650.00         34.9638
   650.14         35.2619
   650.28         35.6514
   650.42         36.0932
   650.56         36.5441
   650.70         36.9659
   650.84         37.3336
   650.98         37.6409
   651.12         37.8990
   651.26         38.1264
   651.40         38.3353
   651.54         38.5292
   651.68         38.7080
   651.82         38.8713
   651.96         39.0172
   652.10         39.1411
   652.24         39.2363
   652.38         39.2982
   652.52         39.3258
   652.66         39.3199
   652.80         39.2850
   652.94         39.2316
   653.08         39.1722
   653.22         39.1179
   653.36         39.0767
   653.50         39.0529
   653.64         39.0459
   653.78         39.0499
   653.92         39.0546
   654.06         39.0486
   654.20         39.0234
   654.34         38.9741
   654.48         38.8973
   654.62         38.7915
   654.76         38.6593
   654.90         38.5016
   655.04         38.3088
   655.18         38.0653
   655.32         37.7655
   655.46         37.4244
   655.60         37.0699
   655.74         36.7302
   655.88         36.4289
   656.02         36.1860
   656.16         36.0162
   656.30         35.9267
   656.44         35.9173
   656.58         35.9850
   656.72         36.1243
   656.86         36.3252
   657.00         36.5732
   657.14         36.8494
   657.28         37.1316
   657.42         37.3952
   657.56         37.6169
   657.70         37.7865
   657.84         37.9147
   657.98         38.0213
   658.12         38.1161
   658.26         38.1916
   658.40         38.2346
   658.54         38.2353
   658.68         38.1912
   658.82         38.1105
   658.96         38.0091
   659.10         37.9070
   659.24         37.8215
   659.38         37.7600
   659.52         37.7204
   659.66         37.6946
   659.80         37.6751
   659.94         37.6599
   660.08         37.6508
   660.22         37.6527
   660.36         37.6705
   660.50         37.7048
   660.64         37.7538
   660.78         37.8186
   660.92         37.9060
   661.06         38.0202
   661.20         38.1541
   661.34         38.2936
   661.48         38.4259
   661.62         38.5384
   661.76         38.6171
   661.90         38.6467
   662.04         38.6163
   662.18         38.5234
   662.32         38.3770
   662.46         38.1962
   662.60         38.0033
   662.74         37.8170
   662.88         37.6526
   663.02         37.5207
   663.16         37.4267
   663.30         37.3740
   663.44         37.3632
   663.58         37.3880
   663.72         37.4357
   663.86         37.4937
   664.00         37.5553
   664.14         37.6167
   664.28         37.6725
   664.42         37.7165
   664.56         37.7453
   664.70         37.7584
   664.84         37.7564
   664.98         37.7380
   665.12         37.6985
   665.26         37.6315
   665.40         37.5337
   665.54         37.4058
   665.68         37.2521
   665.82         37.0825
   665.96         36.9120
   666.10         36.7559
   666.24         36.6261
   666.38         36.5308
   666.52         36.4726
   666.66         36.4469
   666.80         36.4440
   666.94         36.4574
   667.08         36.4865
   667.22         36.5294
   667.36         36.5835
   667.50         36.6480
   667.64         36.7228
   667.78         36.8090
   667.92         36.9103
   668.06         37.0301
   668.20         37.1680
   668.34         37.3180
   668.48         37.4664
   668.62         37.5934
   668.76         37.6797
   668.90         37.7127
   669.04         37.6881
   669.18         37.6093
   669.32         37.4874
   669.46         37.3419
   669.60         37.1971
   669.74         37.0712
   669.88         36.9723
   670.02         36.9023
   670.16         36.8596
   670.30         36.8376
   670.44         36.8254
   670.58         36.8125
   670.72         36.7915
   670.86         36.7590
   671.00         36.7145
   671.14         36.6607
   671.28         36.6050
   671.42         36.5588
   671.56         36.5321
   671.70         36.5294
   671.84         36.5542
   671.98         36.6094
   672.12         36.6944
   672.26         36.8024
   672.40         36.9196
   672.54         37.0284
   672.68         37.1119
   672.82         37.1570
   672.96         37.1555
   673.10         37.1064
   673.24         37.0165
   673.38         36.8965
   673.52         36.7585
   673.66         36.6135
   673.80         36.4715
   673.94         36.3428
   674.08         36.2372
   674.22         36.1623
   674.36         36.1264
   674.50         36.1398
   674.64         36.2081
   674.78         36.3297
   674.92         36.4987
   675.06         36.7039
   675.20         36.9311
   675.34         37.1658
   675.48         37.3930
   675.62         37.5967
   675.76         37.7603
   675.90         37.8679
   676.04         37.9087
   676.18         37.8817
   676.32         37.7936
   676.46         37.6575
   676.60         37.4936
   676.74         37.3274
   676.88         37.1868
   677.02         37.0958
   677.16         37.0653
   677.30         37.0888
   677.44         37.1488
   677.58         37.2242
   677.72         37.2980
   677.86         37.3607
   678.00         37.4090
   678.14         37.4403
   678.28         37.4532
   678.42         37.4496
   678.56         37.4349
   678.70         37.4163
   678.84         37.4014
   678.98         37.3961
   679.12         37.4041
   679.26         37.4264
   679.40         37.4609
   679.54         37.5007
   679.68         37.5374
   679.82         37.5627
   679.96         37.5717
   680.10         37.5644
   680.24         37.5448
   680.38         37.5181
   680.52         37.4891
   680.66         37.4606
   680.80         37.4334
   680.94         37.4086
   681.08         37.3877
   681.22         37.3723
   681.36         37.3647
   681.50         37.3665
   681.64         37.3762
   681.78         37.3903
   681.92         37.4052
   682.06         37.4187
   682.20         37.4279
   682.34         37.4280
   682.48         37.4137
   682.62         37.3836
   682.76         37.3392
   682.90         37.2798
   683.04         37.2032
   683.18         37.1088
   683.32         37.0005
   683.46         36.8875
   683.60         36.7828
   683.74         36.6999
   683.88         36.6507
   684.02         36.6418
   684.16         36.6703
   684.30         36.7262
   684.44         36.7952
   684.58         36.8597
   684.72         36.9009
   684.86         36.9005
   685.00         36.8461
   685.14         36.7354
   685.28         36.5714
   685.42         36.3522
   685.56         36.0678
   685.70         35.7057
   685.84         35.2594
   685.98         34.7318
   686.12         34.1324
   686.26         33.4761
   686.40         32.7843
   686.54         32.0867
   686.68         31.4198
   686.82         30.8241
   686.96         30.3404
   687.10         30.0044
   687.24         29.8397
   687.38         29.8522
   687.52         30.0274
   687.66         30.3348
   687.80         30.7324
   687.94         31.1690
   688.08         31.5921
   688.22         31.9597
   688.36         32.2484
   688.50         32.4545
   688.64         32.5903
   688.78         32.6780
   688.92         32.7465
   689.06         32.8232
   689.20         32.9256
   689.34         33.0597
   689.48         33.2225
   689.62         33.4050
   689.76         33.5944
   689.90         33.7745
   690.04         33.9290
   690.18         34.0453
   690.32         34.1192
   690.46         34.1541
   690.60         34.1608
   690.74         34.1583
   690.88         34.1675
   691.02         34.2053
   691.16         34.2814
   691.30         34.3942
   691.44         34.5302
   691.58         34.6699
   691.72         34.7909
   691.86         34.8734
   692.00         34.9078
   692.14         34.8935
   692.28         34.8347
   692.42         34.7372
   692.56         34.6081
   692.70         34.4575
   692.84         34.2984
   692.98         34.1456
   693.12         34.0102
   693.26         33.8950
   693.40         33.7955
   693.54         33.7034
   693.68         33.6110
   693.82         33.5137
   693.96         33.4097
   694.10         33.3024
   694.24         33.1990
   694.38         33.1052
   694.52         33.0252
   694.66         32.9620
   694.80         32.9178
   694.94         32.8938
   695.08         32.8908
   695.22         32.9091
   695.36         32.9490
   695.50         33.0129
   695.64         33.1047
   695.78         33.2279
   695.92         33.3837
   696.06         33.5724
   696.20         33.7903
   696.34         34.0252
   696.48         34.2561
   696.62         34.4567
   696.76         34.6041
   696.90         34.6856
   697.04         34.7009
   697.18         34.6612
   697.32         34.5836
   697.46         34.4862
   697.60         34.3840
   697.74         34.2885
   697.88         34.2095
   698.02         34.1567
   698.16         34.1374
   698.30         34.1523
   698.44         34.1954
   698.58         34.2550
   698.72         34.3157
   698.86         34.3605
   699.00         34.3746
   699.14         34.3473
   699.28         34.2740
   699.42         34.1593
   699.56         34.0156
   699.70         33.8583
   699.84         33.7016
   699.98         33.5565
   700.12         33.4299
   700.26         33.3237
   700.40         33.2369
   700.54         33.1703
   700.68         33.1293
   700.82         33.1198
   700.96         33.1442
   701.10         33.1996
   701.24         33.2766
   701.38         33.3659
   701.52         33.4643
   701.66         33.5729
   701.80         33.6915
   701.94         33.8178
   702.08         33.9490
   702.22         34.0851
   702.36         34.2288
   702.50         34.3795
   702.64         34.5308
   702.78         34.6757
   702.92         34.8131
   703.06         34.9482
   703.20         35.0871
   703.34         35.2325
   703.48         35.3819
   703.62         35.5297
   703.76         35.6686
   703.90         35.7926
   704.04         35.8974
   704.18         35.9807
   704.32         36.0443
   704.46         36.0933
   704.60         36.1347
   704.74         36.1728
   704.88         36.2089
   705.02         36.2414
   705.16         36.2640
   705.30         36.2702
   705.44         36.2538
   705.58         36.2066
   705.72         36.1202
   705.86         35.9941
   706.00         35.8380
   706.14         35.6682
   706.28         35.4999
   706.42         35.3448
   706.56         35.2163
   706.70         35.1317
   706.84         35.1109
   706.98         35.1650
   707.12         35.2840
   707.26         35.4416
   707.40         35.6072
   707.54         35.7548
   707.68         35.8656
   707.82         35.9232
   707.96         35.9149
   708.10         35.8353
   708.24         35.6901
   708.38         35.4964
   708.52         35.2755
   708.66         35.0450
   708.80         34.8172
   708.94         34.6010
   709.08         34.4050
   709.22         34.2384
   709.36         34.1052
   709.50         33.9992
   709.64         33.9071
   709.78         33.8152
   709.92         33.7151
   710.06         33.6079
   710.20         33.5023
   710.34         33.4084
   710.48         33.3309
   710.62         33.2693
   710.76         33.2237
   710.90         33.1964
   711.04         33.1884
   711.18         33.1995
   711.32         33.2276
   711.46         33.2708
   711.60         33.3265
   711.74         33.3889
   711.88         33.4495
   712.02         33.5020
   712.16         33.5487
   712.30         33.6015
   712.44         33.6751
   712.58         33.7814
   712.72         33.9254
   712.86         34.1029
   713.00         34.3006
   713.14         34.5011
   713.28         34.6885
   713.42         34.8519
   713.56         34.9822
   713.70         35.0688
   713.84         35.1041
   713.98         35.0851
   714.12         35.0148
   714.26         34.9002
   714.40         34.7527
   714.54         34.5915
   714.68         34.4389
   714.82         34.3098
   714.96         34.2086
   715.10         34.1309
   715.24         34.0669
   715.38         34.0053
   715.52         33.9412
   715.66         33.8762
   715.80         33.8117
   715.94         33.7477
   716.08         33.6832
   716.22         33.6146
   716.36         33.5353
   716.50         33.4398
   716.64         33.3275
   716.78         33.1977
   716.92         33.0473
   717.06         32.8767
   717.20         32.6903
   717.34         32.4883
   717.48         32.2663
   717.62         32.0213
   717.76         31.7542
   717.90         31.4684
   718.04         31.1698
   718.18         30.8708
   718.32         30.5889
   718.46         30.3410
   718.60         30.1418
   718.74         30.0013
   718.88         29.9243
   719.02         29.9144
   719.16         29.9746
   719.30         30.1046
   719.44         30.2949
   719.58         30.5274
   719.72         30.7837
   719.86         31.0492
   720.00         31.3145
   720.14         31.5738
   720.28         31.8251
   720.42         32.0728
   720.56         32.3253
   720.70         32.5927
   720.84         32.8836
   720.98         33.1962
   721.12         33.5159
   721.26         33.8279
   721.40         34.1235
   721.54         34.3963
   721.68         34.6396
   721.82         34.8474
   721.96         35.0146
   722.10         35.1310
   722.24         35.1863
   722.38         35.1813
   722.52         35.1254
   722.66         35.0265
   722.80         34.8885
   722.94         34.7198
   723.08         34.5331
   723.22         34.3351
   723.36         34.1270
   723.50         33.9127
   723.64         33.7015
   723.78         33.5095
   723.92         33.3506
   724.06         33.2239
   724.20         33.1185
   724.34         33.0278
   724.48         32.9505
   724.62         32.8822
   724.76         32.8153
   724.90         32.7449
   725.04         32.6688
   725.18         32.5848
   725.32         32.4888
   725.46         32.3821
   725.60         32.2738
   725.74         32.1726
   725.88         32.0857
   726.02         32.0226
   726.16         31.9895
   726.30         31.9818
   726.44         31.9844
   726.58         31.9796
   726.72         31.9589
   726.86         31.9255
   727.00         31.8809
   727.14         31.8182
   727.28         31.7298
   727.42         31.6131
   727.56         31.4709
   727.70         31.3099
   727.84         31.1364
   727.98         30.9556
   728.12         30.7751
   728.26         30.6001
   728.40         30.4347
   728.54         30.2894
   728.68         30.1773
   728.82         30.1085
   728.96         30.0885
   729.10         30.1188
   729.24         30.2003
   729.38         30.3341
   729.52         30.5126
   729.66         30.7150
   729.80         30.9186
   729.94         31.1059
   730.08         31.2612
   730.22         31.3727
   730.36         31.4367
   730.50         31.4565
   730.64         31.4415
   730.78         31.4057
   730.92         31.3640
   731.06         31.3295
   731.20         31.3078
   731.34         31.2936
   731.48         31.2777
   731.62         31.2553
   731.76         31.2307
   731.90         31.2143
   732.04         31.2140
   732.18         31.2276
   732.32         31.2487
   732.46         31.2758
   732.60         31.3111
   732.74         31.3547
   732.88         31.4048
   733.02         31.4586
   733.16         31.5091
   733.30         31.5473
   733.44         31.5658
   733.58         31.5610
   733.72         31.5305
   733.86         31.4715
   734.00         31.3850
   734.14         31.2808
   734.28         31.1739
   734.42         31.0754
   734.56         30.9887
   734.70         30.9129
   734.84         30.8483
   734.98         30.7963
   735.12         30.7571
   735.26         30.7282
   735.40         30.7049
   735.54         30.6828
   735.68         30.6585
   735.82         30.6309
   735.96         30.6020
   736.10         30.5778
   736.24         30.5649
   736.38         30.5662
   736.52         30.5843
   736.66         30.6243
   736.80         30.6901
   736.94         30.7784
   737.08         30.8789
   737.22         30.9816
   737.36         31.0771
   737.50         31.1572
   737.64         31.2138
   737.78         31.2401
   737.92         31.2335
   738.06         31.1971
   738.20         31.1368
   738.34         31.0606
   738.48         30.9796
   738.62         30.9055
   738.76         30.8465
   738.90         30.8076
   739.04         30.7924
   739.18         30.8017
   739.32         30.8295
   739.46         30.8618
   739.60         30.8821
   739.74         30.8765
   739.88         30.8382
   740.02         30.7660
   740.16         30.6634
   740.30         30.5396
   740.44         30.4100
   740.58         30.2940
   740.72         30.2090
   740.86         30.1655
   741.00         30.1678
   741.14         30.2147
   741.28         30.2972
   741.42         30.3984
   741.56         30.4999
   741.70         30.5851
   741.84         30.6391
   741.98         30.6513
   742.12         30.6208
   742.26         30.5547
   742.40         30.4663
   742.54         30.3739
   742.68         30.2970
   742.82         30.2530
   742.96         30.2530
   743.10         30.2970
   743.24         30.3739
   743.38         30.4663
   743.52         30.5547
   743.66         30.6208
   743.80         30.6513
   743.94         30.6391
   744.08         30.5851
   744.22         30.4999
