# File SAO63349
# Wavelength [nm]    Normalized Amplitude
   349.70         0.1929
   349.84         0.1886
   349.98         0.1868
   350.12         0.1871
   350.26         0.1883
   350.40         0.1890
   350.54         0.1884
   350.68         0.1865
   350.82         0.1842
   350.96         0.1825
   351.10         0.1820
   351.24         0.1825
   351.38         0.1842
   351.52         0.1865
   351.66         0.1884
   351.80         0.1890
   351.94         0.1883
   352.08         0.1871
   352.22         0.1868
   352.36         0.1886
   352.50         0.1929
   352.64         0.1991
   352.78         0.2065
   352.92         0.2148
   353.06         0.2239
   353.20         0.2338
   353.34         0.2443
   353.48         0.2550
   353.62         0.2656
   353.76         0.2750
   353.90         0.2827
   354.04         0.2885
   354.18         0.2926
   354.32         0.2953
   354.46         0.2968
   354.60         0.2977
   354.74         0.2980
   354.88         0.2983
   355.02         0.2984
   355.16         0.2982
   355.30         0.2976
   355.44         0.2962
   355.58         0.2932
   355.72         0.2877
   355.86         0.2795
   356.00         0.2684
   356.14         0.2546
   356.28         0.2380
   356.42         0.2188
   356.56         0.1980
   356.70         0.1772
   356.84         0.1583
   356.98         0.1434
   357.12         0.1346
   357.26         0.1330
   357.40         0.1390
   357.54         0.1512
   357.68         0.1673
   357.82         0.1847
   357.96         0.2008
   358.10         0.2139
   358.24         0.2230
   358.38         0.2276
   358.52         0.2282
   358.66         0.2253
   358.80         0.2196
   358.94         0.2121
   359.08         0.2041
   359.22         0.1970
   359.36         0.1921
   359.50         0.1900
   359.64         0.1903
   359.78         0.1920
   359.92         0.1932
   360.06         0.1926
   360.20         0.1896
   360.34         0.1848
   360.48         0.1787
   360.62         0.1725
   360.76         0.1670
   360.90         0.1630
   361.04         0.1609
   361.18         0.1609
   361.32         0.1635
   361.46         0.1690
   361.60         0.1773
   361.74         0.1879
   361.88         0.1999
   362.02         0.2123
   362.16         0.2240
   362.30         0.2342
   362.44         0.2424
   362.58         0.2484
   362.72         0.2527
   362.86         0.2559
   363.00         0.2589
   363.14         0.2623
   363.28         0.2664
   363.42         0.2713
   363.56         0.2768
   363.70         0.2824
   363.84         0.2875
   363.98         0.2917
   364.12         0.2948
   364.26         0.2963
   364.40         0.2965
   364.54         0.2957
   364.68         0.2949
   364.82         0.2947
   364.96         0.2958
   365.10         0.2988
   365.24         0.3036
   365.38         0.3105
   365.52         0.3193
   365.66         0.3299
   365.80         0.3412
   365.94         0.3519
   366.08         0.3608
   366.22         0.3670
   366.36         0.3697
   366.50         0.3693
   366.64         0.3665
   366.78         0.3622
   366.92         0.3570
   367.06         0.3515
   367.20         0.3458
   367.34         0.3399
   367.48         0.3341
   367.62         0.3283
   367.76         0.3224
   367.90         0.3167
   368.04         0.3115
   368.18         0.3072
   368.32         0.3045
   368.46         0.3036
   368.60         0.3044
   368.74         0.3066
   368.88         0.3106
   369.02         0.3160
   369.16         0.3219
   369.30         0.3275
   369.44         0.3310
   369.58         0.3315
   369.72         0.3283
   369.86         0.3220
   370.00         0.3132
   370.14         0.3032
   370.28         0.2929
   370.42         0.2837
   370.56         0.2767
   370.70         0.2725
   370.84         0.2712
   370.98         0.2720
   371.12         0.2738
   371.26         0.2758
   371.40         0.2773
   371.54         0.2778
   371.68         0.2768
   371.82         0.2740
   371.96         0.2693
   372.10         0.2631
   372.24         0.2560
   372.38         0.2487
   372.52         0.2416
   372.66         0.2347
   372.80         0.2285
   372.94         0.2233
   373.08         0.2193
   373.22         0.2167
   373.36         0.2155
   373.50         0.2156
   373.64         0.2170
   373.78         0.2193
   373.92         0.2223
   374.06         0.2257
   374.20         0.2293
   374.34         0.2331
   374.48         0.2368
   374.62         0.2402
   374.76         0.2432
   374.90         0.2454
   375.04         0.2465
   375.18         0.2465
   375.32         0.2459
   375.46         0.2451
   375.60         0.2447
   375.74         0.2452
   375.88         0.2470
   376.02         0.2504
   376.16         0.2558
   376.30         0.2632
   376.44         0.2733
   376.58         0.2863
   376.72         0.3021
   376.86         0.3205
   377.00         0.3404
   377.14         0.3606
   377.28         0.3796
   377.42         0.3966
   377.56         0.4108
   377.70         0.4218
   377.84         0.4288
   377.98         0.4315
   378.12         0.4300
   378.26         0.4245
   378.40         0.4156
   378.54         0.4038
   378.68         0.3898
   378.82         0.3748
   378.96         0.3602
   379.10         0.3475
   379.24         0.3382
   379.38         0.3333
   379.52         0.3336
   379.66         0.3392
   379.80         0.3495
   379.94         0.3636
   380.08         0.3795
   380.22         0.3951
   380.36         0.4084
   380.50         0.4179
   380.64         0.4232
   380.78         0.4238
   380.92         0.4193
   381.06         0.4097
   381.20         0.3955
   381.34         0.3778
   381.48         0.3581
   381.62         0.3382
   381.76         0.3198
   381.90         0.3045
   382.04         0.2931
   382.18         0.2860
   382.32         0.2828
   382.46         0.2828
   382.60         0.2850
   382.74         0.2886
   382.88         0.2927
   383.02         0.2967
   383.16         0.3003
   383.30         0.3033
   383.44         0.3053
   383.58         0.3062
   383.72         0.3061
   383.86         0.3056
   384.00         0.3051
   384.14         0.3053
   384.28         0.3065
   384.42         0.3087
   384.56         0.3113
   384.70         0.3139
   384.84         0.3160
   384.98         0.3175
   385.12         0.3181
   385.26         0.3179
   385.40         0.3172
   385.54         0.3166
   385.68         0.3165
   385.82         0.3173
   385.96         0.3191
   386.10         0.3216
   386.24         0.3246
   386.38         0.3280
   386.52         0.3321
   386.66         0.3366
   386.80         0.3414
   386.94         0.3462
   387.08         0.3507
   387.22         0.3545
   387.36         0.3576
   387.50         0.3599
   387.64         0.3616
   387.78         0.3631
   387.92         0.3649
   388.06         0.3676
   388.20         0.3716
   388.34         0.3765
   388.48         0.3818
   388.62         0.3870
   388.76         0.3920
   388.90         0.3970
   389.04         0.4023
   389.18         0.4078
   389.32         0.4130
   389.46         0.4173
   389.60         0.4200
   389.74         0.4205
   389.88         0.4190
   390.02         0.4162
   390.16         0.4131
   390.30         0.4105
   390.44         0.4089
   390.58         0.4087
   390.72         0.4094
   390.86         0.4104
   391.00         0.4109
   391.14         0.4101
   391.28         0.4077
   391.42         0.4035
   391.56         0.3973
   391.70         0.3886
   391.84         0.3769
   391.98         0.3619
   392.12         0.3440
   392.26         0.3240
   392.40         0.3030
   392.54         0.2822
   392.68         0.2625
   392.82         0.2445
   392.96         0.2291
   393.10         0.2167
   393.24         0.2078
   393.38         0.2027
   393.52         0.2018
   393.66         0.2053
   393.80         0.2134
   393.94         0.2260
   394.08         0.2430
   394.22         0.2636
   394.36         0.2867
   394.50         0.3111
   394.64         0.3356
   394.78         0.3589
   394.92         0.3795
   395.06         0.3959
   395.20         0.4070
   395.34         0.4121
   395.48         0.4107
   395.62         0.4029
   395.76         0.3889
   395.90         0.3696
   396.04         0.3466
   396.18         0.3217
   396.32         0.2971
   396.46         0.2751
   396.60         0.2581
   396.74         0.2479
   396.88         0.2454
   397.02         0.2509
   397.16         0.2643
   397.30         0.2848
   397.44         0.3115
   397.58         0.3431
   397.72         0.3782
   397.86         0.4154
   398.00         0.4530
   398.14         0.4899
   398.28         0.5245
   398.42         0.5561
   398.56         0.5839
   398.70         0.6078
   398.84         0.6276
   398.98         0.6441
   399.12         0.6581
   399.26         0.6704
   399.40         0.6816
   399.54         0.6920
   399.68         0.7023
   399.82         0.7129
   399.96         0.7243
   400.10         0.7367
   400.24         0.7499
   400.38         0.7638
   400.52         0.7781
   400.66         0.7925
   400.80         0.8064
   400.94         0.8193
   401.08         0.8306
   401.22         0.8401
   401.36         0.8478
   401.50         0.8542
   401.64         0.8598
   401.78         0.8645
   401.92         0.8675
   402.06         0.8680
   402.20         0.8655
   402.34         0.8603
   402.48         0.8533
   402.62         0.8461
   402.76         0.8405
   402.90         0.8382
   403.04         0.8401
   403.18         0.8460
   403.32         0.8549
   403.46         0.8654
   403.60         0.8759
   403.74         0.8854
   403.88         0.8933
   404.02         0.8999
   404.16         0.9053
   404.30         0.9096
   404.44         0.9127
   404.58         0.9146
   404.72         0.9161
   404.86         0.9184
   405.00         0.9224
   405.14         0.9282
   405.28         0.9350
   405.42         0.9416
   405.56         0.9467
   405.70         0.9495
   405.84         0.9496
   405.98         0.9474
   406.12         0.9440
   406.26         0.9411
   406.40         0.9398
   406.54         0.9405
   406.68         0.9431
   406.82         0.9474
   406.96         0.9533
   407.10         0.9611
   407.24         0.9711
   407.38         0.9839
   407.52         1.0000
   407.66         1.0197
   407.80         1.0430
   407.94         1.0697
   408.08         1.0992
   408.22         1.1303
   408.36         1.1606
   408.50         1.1871
   408.64         1.2068
   408.78         1.2173
   408.92         1.2171
   409.06         1.2056
   409.20         1.1842
   409.34         1.1555
   409.48         1.1230
   409.62         1.0906
   409.76         1.0612
   409.90         1.0371
   410.04         1.0197
   410.18         1.0095
   410.32         1.0061
   410.46         1.0081
   410.60         1.0135
   410.74         1.0203
   410.88         1.0265
   411.02         1.0306
   411.16         1.0322
   411.30         1.0323
   411.44         1.0324
   411.58         1.0343
   411.72         1.0391
   411.86         1.0472
   412.00         1.0580
   412.14         1.0703
   412.28         1.0824
   412.42         1.0929
   412.56         1.1006
   412.70         1.1052
   412.84         1.1066
   412.98         1.1048
   413.12         1.0992
   413.26         1.0900
   413.40         1.0775
   413.54         1.0630
   413.68         1.0485
   413.82         1.0355
   413.96         1.0253
   414.10         1.0185
   414.24         1.0154
   414.38         1.0164
   414.52         1.0219
   414.66         1.0327
   414.80         1.0494
   414.94         1.0723
   415.08         1.1007
   415.22         1.1330
   415.36         1.1668
   415.50         1.1991
   415.64         1.2274
   415.78         1.2499
   415.92         1.2655
   416.06         1.2733
   416.20         1.2726
   416.34         1.2631
   416.48         1.2453
   416.62         1.2213
   416.76         1.1940
   416.90         1.1669
   417.04         1.1434
   417.18         1.1262
   417.32         1.1174
   417.46         1.1176
   417.60         1.1266
   417.74         1.1430
   417.88         1.1645
   418.02         1.1887
   418.16         1.2134
   418.30         1.2368
   418.44         1.2567
   418.58         1.2713
   418.72         1.2788
   418.86         1.2785
   419.00         1.2709
   419.14         1.2571
   419.28         1.2390
   419.42         1.2183
   419.56         1.1970
   419.70         1.1768
   419.84         1.1595
   419.98         1.1463
   420.12         1.1380
   420.26         1.1353
   420.40         1.1380
   420.54         1.1456
   420.68         1.1573
   420.82         1.1719
   420.96         1.1874
   421.10         1.2010
   421.24         1.2094
   421.38         1.2096
   421.52         1.1993
   421.66         1.1773
   421.80         1.1440
   421.94         1.1016
   422.08         1.0536
   422.22         1.0042
   422.36         0.9581
   422.50         0.9193
   422.64         0.8914
   422.78         0.8771
   422.92         0.8778
   423.06         0.8940
   423.20         0.9251
   423.34         0.9696
   423.48         1.0250
   423.62         1.0872
   423.76         1.1514
   423.90         1.2124
   424.04         1.2660
   424.18         1.3089
   424.32         1.3396
   424.46         1.3579
   424.60         1.3650
   424.74         1.3622
   424.88         1.3512
   425.02         1.3339
   425.16         1.3134
   425.30         1.2933
   425.44         1.2775
   425.58         1.2696
   425.72         1.2719
   425.86         1.2846
   426.00         1.3057
   426.14         1.3312
   426.28         1.3562
   426.42         1.3764
   426.56         1.3888
   426.70         1.3927
   426.84         1.3889
   426.98         1.3796
   427.12         1.3673
   427.26         1.3548
   427.40         1.3440
   427.54         1.3364
   427.68         1.3330
   427.82         1.3334
   427.96         1.3360
   428.10         1.3387
   428.24         1.3393
   428.38         1.3363
   428.52         1.3289
   428.66         1.3172
   428.80         1.3023
   428.94         1.2860
   429.08         1.2705
   429.22         1.2578
   429.36         1.2494
   429.50         1.2456
   429.64         1.2455
   429.78         1.2474
   429.92         1.2500
   430.06         1.2533
   430.20         1.2580
   430.34         1.2653
   430.48         1.2772
   430.62         1.2966
   430.76         1.3264
   430.90         1.3683
   431.04         1.4214
   431.18         1.4828
   431.32         1.5484
   431.46         1.6131
   431.60         1.6725
   431.74         1.7236
   431.88         1.7650
   432.02         1.7966
   432.16         1.8195
   432.30         1.8360
   432.44         1.8497
   432.58         1.8638
   432.72         1.8804
   432.86         1.8992
   433.00         1.9193
   433.14         1.9397
   433.28         1.9592
   433.42         1.9761
   433.56         1.9889
   433.70         1.9967
   433.84         1.9995
   433.98         1.9984
   434.12         1.9943
   434.26         1.9887
   434.40         1.9833
   434.54         1.9798
   434.68         1.9793
   434.82         1.9817
   434.96         1.9866
   435.10         1.9928
   435.24         1.9998
   435.38         2.0077
   435.52         2.0172
   435.66         2.0298
   435.80         2.0462
   435.94         2.0664
   436.08         2.0892
   436.22         2.1129
   436.36         2.1350
   436.50         2.1528
   436.64         2.1643
   436.78         2.1688
   436.92         2.1665
   437.06         2.1581
   437.20         2.1433
   437.34         2.1215
   437.48         2.0928
   437.62         2.0585
   437.76         2.0214
   437.90         1.9840
   438.04         1.9485
   438.18         1.9173
   438.32         1.8924
   438.46         1.8761
   438.60         1.8709
   438.74         1.8780
   438.88         1.8972
   439.02         1.9270
   439.16         1.9647
   439.30         2.0062
   439.44         2.0458
   439.58         2.0770
   439.72         2.0949
   439.86         2.0977
   440.00         2.0875
   440.14         2.0684
   440.28         2.0454
   440.42         2.0224
   440.56         2.0030
   440.70         1.9907
   440.84         1.9887
   440.98         1.9988
   441.12         2.0209
   441.26         2.0527
   441.40         2.0902
   441.54         2.1289
   441.68         2.1644
   441.82         2.1936
   441.96         2.2142
   442.10         2.2258
   442.24         2.2296
   442.38         2.2276
   442.52         2.2219
   442.66         2.2147
   442.80         2.2080
   442.94         2.2031
   443.08         2.2007
   443.22         2.2018
   443.36         2.2073
   443.50         2.2177
   443.64         2.2327
   443.78         2.2514
   443.92         2.2728
   444.06         2.2960
   444.20         2.3197
   444.34         2.3420
   444.48         2.3607
   444.62         2.3734
   444.76         2.3784
   444.90         2.3744
   445.04         2.3606
   445.18         2.3381
   445.32         2.3090
   445.46         2.2757
   445.60         2.2402
   445.74         2.2047
   445.88         2.1722
   446.02         2.1463
   446.16         2.1298
   446.30         2.1249
   446.44         2.1328
   446.58         2.1538
   446.72         2.1873
   446.86         2.2307
   447.00         2.2805
   447.14         2.3333
   447.28         2.3866
   447.42         2.4384
   447.56         2.4865
   447.70         2.5290
   447.84         2.5645
   447.98         2.5926
   448.12         2.6133
   448.26         2.6270
   448.40         2.6344
   448.54         2.6365
   448.68         2.6352
   448.82         2.6329
   448.96         2.6320
   449.10         2.6347
   449.24         2.6427
   449.38         2.6565
   449.52         2.6759
   449.66         2.7003
   449.80         2.7295
   449.94         2.7623
   450.08         2.7960
   450.22         2.8271
   450.36         2.8528
   450.50         2.8714
   450.64         2.8826
   450.78         2.8860
   450.92         2.8823
   451.06         2.8728
   451.20         2.8591
   451.34         2.8425
   451.48         2.8232
   451.62         2.8009
   451.76         2.7752
   451.90         2.7459
   452.04         2.7128
   452.18         2.6760
   452.32         2.6364
   452.46         2.5958
   452.60         2.5575
   452.74         2.5252
   452.88         2.5023
   453.02         2.4916
   453.16         2.4943
   453.30         2.5101
   453.44         2.5371
   453.58         2.5720
   453.72         2.6106
   453.86         2.6486
   454.00         2.6825
   454.14         2.7091
   454.28         2.7270
   454.42         2.7373
   454.56         2.7429
   454.70         2.7476
   454.84         2.7552
   454.98         2.7692
   455.12         2.7925
   455.26         2.8267
   455.40         2.8711
   455.54         2.9246
   455.68         2.9847
   455.82         3.0479
   455.96         3.1097
   456.10         3.1665
   456.24         3.2153
   456.38         3.2539
   456.52         3.2813
   456.66         3.2969
   456.80         3.3014
   456.94         3.2976
   457.08         3.2887
   457.22         3.2764
   457.36         3.2601
   457.50         3.2390
   457.64         3.2130
   457.78         3.1829
   457.92         3.1500
   458.06         3.1151
   458.20         3.0788
   458.34         3.0409
   458.48         3.0021
   458.62         2.9643
   458.76         2.9292
   458.90         2.8982
   459.04         2.8727
   459.18         2.8537
   459.32         2.8424
   459.46         2.8405
   459.60         2.8492
   459.74         2.8692
   459.88         2.8999
   460.02         2.9409
   460.16         2.9914
   460.30         3.0500
   460.44         3.1145
   460.58         3.1823
   460.72         3.2509
   460.86         3.3175
   461.00         3.3796
   461.14         3.4344
   461.28         3.4789
   461.42         3.5105
   461.56         3.5271
   461.70         3.5275
   461.84         3.5117
   461.98         3.4811
   462.12         3.4373
   462.26         3.3818
   462.40         3.3167
   462.54         3.2447
   462.68         3.1688
   462.82         3.0920
   462.96         3.0177
   463.10         2.9492
   463.24         2.8889
   463.38         2.8381
   463.52         2.7973
   463.66         2.7667
   463.80         2.7464
   463.94         2.7365
   464.08         2.7367
   464.22         2.7462
   464.36         2.7641
   464.50         2.7895
   464.64         2.8225
   464.78         2.8634
   464.92         2.9120
   465.06         2.9676
   465.20         3.0285
   465.34         3.0914
   465.48         3.1522
   465.62         3.2056
   465.76         3.2469
   465.90         3.2727
   466.04         3.2811
   466.18         3.2715
   466.32         3.2455
   466.46         3.2058
   466.60         3.1567
   466.74         3.1028
   466.88         3.0487
   467.02         2.9991
   467.16         2.9583
   467.30         2.9296
   467.44         2.9139
   467.58         2.9096
   467.72         2.9144
   467.86         2.9254
   468.00         2.9401
   468.14         2.9574
   468.28         2.9777
   468.42         3.0024
   468.56         3.0328
   468.70         3.0689
   468.84         3.1097
   468.98         3.1536
   469.12         3.1991
   469.26         3.2446
   469.40         3.2886
   469.54         3.3291
   469.68         3.3644
   469.82         3.3939
   469.96         3.4176
   470.10         3.4361
   470.24         3.4499
   470.38         3.4593
   470.52         3.4644
   470.66         3.4659
   470.80         3.4651
   470.94         3.4631
   471.08         3.4605
   471.22         3.4578
   471.36         3.4556
   471.50         3.4546
   471.64         3.4551
   471.78         3.4565
   471.92         3.4577
   472.06         3.4580
   472.20         3.4570
   472.34         3.4555
   472.48         3.4550
   472.62         3.4566
   472.76         3.4606
   472.90         3.4669
   473.04         3.4751
   473.18         3.4852
   473.32         3.4977
   473.46         3.5133
   473.60         3.5320
   473.74         3.5533
   473.88         3.5769
   474.02         3.6027
   474.16         3.6303
   474.30         3.6590
   474.44         3.6885
   474.58         3.7187
   474.72         3.7490
   474.86         3.7770
   475.00         3.7981
   475.14         3.8058
   475.28         3.7938
   475.42         3.7570
   475.56         3.6922
   475.70         3.5996
   475.84         3.4826
   475.98         3.3477
   476.12         3.2029
   476.26         3.0570
   476.40         2.9186
   476.54         2.7959
   476.68         2.6951
   476.82         2.6197
   476.96         2.5703
   477.10         2.5453
   477.24         2.5411
   477.38         2.5519
   477.52         2.5712
   477.66         2.5926
   477.80         2.6124
   477.94         2.6294
   478.08         2.6443
   478.22         2.6598
   478.36         2.6790
   478.50         2.7051
   478.64         2.7399
   478.78         2.7835
   478.92         2.8354
   479.06         2.8938
   479.20         2.9564
   479.34         3.0190
   479.48         3.0762
   479.62         3.1221
   479.76         3.1513
   479.90         3.1605
   480.04         3.1485
   480.18         3.1168
   480.32         3.0688
   480.46         3.0094
   480.60         2.9441
   480.74         2.8788
   480.88         2.8194
   481.02         2.7709
   481.16         2.7369
   481.30         2.7192
   481.44         2.7186
   481.58         2.7346
   481.72         2.7653
   481.86         2.8067
   482.00         2.8540
   482.14         2.9030
   482.28         2.9510
   482.42         2.9969
   482.56         3.0405
   482.70         3.0815
   482.84         3.1193
   482.98         3.1528
   483.12         3.1813
   483.26         3.2048
   483.40         3.2231
   483.54         3.2357
   483.68         3.2425
   483.82         3.2435
   483.96         3.2392
   484.10         3.2302
   484.24         3.2171
   484.38         3.2011
   484.52         3.1837
   484.66         3.1669
   484.80         3.1517
   484.94         3.1382
   485.08         3.1259
   485.22         3.1145
   485.36         3.1042
   485.50         3.0950
   485.64         3.0879
   485.78         3.0838
   485.92         3.0835
   486.06         3.0877
   486.20         3.0970
   486.34         3.1124
   486.48         3.1343
   486.62         3.1625
   486.76         3.1955
   486.90         3.2319
   487.04         3.2700
   487.18         3.3077
   487.32         3.3430
   487.46         3.3741
   487.60         3.4007
   487.74         3.4235
   487.88         3.4435
   488.02         3.4620
   488.16         3.4812
   488.30         3.5036
   488.44         3.5318
   488.58         3.5676
   488.72         3.6120
   488.86         3.6649
   489.00         3.7252
   489.14         3.7902
   489.28         3.8570
   489.42         3.9229
   489.56         3.9850
   489.70         4.0409
   489.84         4.0886
   489.98         4.1271
   490.12         4.1567
   490.26         4.1787
   490.40         4.1950
   490.54         4.2076
   490.68         4.2182
   490.82         4.2270
   490.96         4.2329
   491.10         4.2348
   491.24         4.2324
   491.38         4.2265
   491.52         4.2191
   491.66         4.2137
   491.80         4.2143
   491.94         4.2246
   492.08         4.2463
   492.22         4.2790
   492.36         4.3213
   492.50         4.3709
   492.64         4.4241
   492.78         4.4766
   492.92         4.5238
   493.06         4.5625
   493.20         4.5913
   493.34         4.6105
   493.48         4.6227
   493.62         4.6320
   493.76         4.6436
   493.90         4.6625
   494.04         4.6909
   494.18         4.7270
   494.32         4.7632
   494.46         4.7872
   494.60         4.7849
   494.74         4.7442
   494.88         4.6572
   495.02         4.5218
   495.16         4.3409
   495.30         4.1225
   495.44         3.8784
   495.58         3.6233
   495.72         3.3729
   495.86         3.1424
   496.00         2.9447
   496.14         2.7890
   496.28         2.6805
   496.42         2.6202
   496.56         2.6042
   496.70         2.6236
   496.84         2.6663
   496.98         2.7203
   497.12         2.7761
   497.26         2.8281
   497.40         2.8747
   497.54         2.9157
   497.68         2.9516
   497.82         2.9834
   497.96         3.0121
   498.10         3.0389
   498.24         3.0654
   498.38         3.0929
   498.52         3.1217
   498.66         3.1509
   498.80         3.1783
   498.94         3.2009
   499.08         3.2158
   499.22         3.2201
   499.36         3.2116
   499.50         3.1897
   499.64         3.1559
   499.78         3.1135
   499.92         3.0670
   500.06         3.0202
   500.20         2.9753
   500.34         2.9334
   500.48         2.8953
   500.62         2.8622
   500.76         2.8354
   500.90         2.8160
   501.04         2.8040
   501.18         2.7985
   501.32         2.7987
   501.46         2.8043
   501.60         2.8155
   501.74         2.8329
   501.88         2.8572
   502.02         2.8896
   502.16         2.9307
   502.30         2.9803
   502.44         3.0369
   502.58         3.0973
   502.72         3.1578
   502.86         3.2143
   503.00         3.2639
   503.14         3.3054
   503.28         3.3398
   503.42         3.3690
   503.56         3.3952
   503.70         3.4199
   503.84         3.4443
   503.98         3.4693
   504.12         3.4956
   504.26         3.5235
   504.40         3.5530
   504.54         3.5842
   504.68         3.6171
   504.82         3.6514
   504.96         3.6867
   505.10         3.7221
   505.24         3.7561
   505.38         3.7867
   505.52         3.8125
   505.66         3.8333
   505.80         3.8500
   505.94         3.8630
   506.08         3.8716
   506.22         3.8747
   506.36         3.8725
   506.50         3.8664
   506.64         3.8591
   506.78         3.8530
   506.92         3.8493
   507.06         3.8479
   507.20         3.8485
   507.34         3.8504
   507.48         3.8528
   507.62         3.8549
   507.76         3.8564
   507.90         3.8576
   508.04         3.8602
   508.18         3.8671
   508.32         3.8813
   508.46         3.9040
   508.60         3.9343
   508.74         3.9706
   508.88         4.0105
   509.02         4.0510
   509.16         4.0885
   509.30         4.1195
   509.44         4.1408
   509.58         4.1508
   509.72         4.1495
   509.86         4.1390
   510.00         4.1227
   510.14         4.1043
   510.28         4.0875
   510.42         4.0763
   510.56         4.0742
   510.70         4.0836
   510.84         4.1047
   510.98         4.1352
   511.12         4.1711
   511.26         4.2079
   511.40         4.2412
   511.54         4.2669
   511.68         4.2817
   511.82         4.2834
   511.96         4.2723
   512.10         4.2511
   512.24         4.2247
   512.38         4.1991
   512.52         4.1802
   512.66         4.1726
   512.80         4.1787
   512.94         4.1990
   513.08         4.2317
   513.22         4.2722
   513.36         4.3139
   513.50         4.3500
   513.64         4.3748
   513.78         4.3848
   513.92         4.3784
   514.06         4.3557
   514.20         4.3185
   514.34         4.2716
   514.48         4.2226
   514.62         4.1803
   514.76         4.1519
   514.90         4.1420
   515.04         4.1523
   515.18         4.1808
   515.32         4.2215
   515.46         4.2642
   515.60         4.2955
   515.74         4.3012
   515.88         4.2691
   516.02         4.1915
   516.16         4.0656
   516.30         3.8945
   516.44         3.6862
   516.58         3.4531
   516.72         3.2106
   516.86         2.9758
   517.00         2.7650
   517.14         2.5908
   517.28         2.4610
   517.42         2.3784
   517.56         2.3419
   517.70         2.3468
   517.84         2.3852
   517.98         2.4465
   518.12         2.5204
   518.26         2.5989
   518.40         2.6783
   518.54         2.7580
   518.68         2.8383
   518.82         2.9198
   518.96         3.0023
   519.10         3.0834
   519.24         3.1588
   519.38         3.2229
   519.52         3.2705
   519.66         3.2978
   519.80         3.3040
   519.94         3.2920
   520.08         3.2676
   520.22         3.2385
   520.36         3.2122
   520.50         3.1957
   520.64         3.1952
   520.78         3.2161
   520.92         3.2620
   521.06         3.3337
   521.20         3.4279
   521.34         3.5369
   521.48         3.6504
   521.62         3.7591
   521.76         3.8562
   521.90         3.9381
   522.04         4.0045
   522.18         4.0579
   522.32         4.1026
   522.46         4.1443
   522.60         4.1880
   522.74         4.2368
   522.88         4.2902
   523.02         4.3458
   523.16         4.4006
   523.30         4.4510
   523.44         4.4919
   523.58         4.5181
   523.72         4.5251
   523.86         4.5104
   524.00         4.4752
   524.14         4.4241
   524.28         4.3643
   524.42         4.3032
   524.56         4.2480
   524.70         4.2050
   524.84         4.1788
   524.98         4.1711
   525.12         4.1800
   525.26         4.2007
   525.40         4.2263
   525.54         4.2500
   525.68         4.2663
   525.82         4.2700
   525.96         4.2583
   526.10         4.2319
   526.24         4.1955
   526.38         4.1569
   526.52         4.1251
   526.66         4.1091
   526.80         4.1157
   526.94         4.1490
   527.08         4.2098
   527.22         4.2956
   527.36         4.4017
   527.50         4.5209
   527.64         4.6457
   527.78         4.7692
   527.92         4.8859
   528.06         4.9921
   528.20         5.0850
   528.34         5.1627
   528.48         5.2236
   528.62         5.2669
   528.76         5.2931
   528.90         5.3032
   529.04         5.2999
   529.18         5.2879
   529.32         5.2725
   529.46         5.2591
   529.60         5.2519
   529.74         5.2543
   529.88         5.2683
   530.02         5.2943
   530.16         5.3308
   530.30         5.3746
   530.44         5.4215
   530.58         5.4668
   530.72         5.5054
   530.86         5.5328
   531.00         5.5463
   531.14         5.5449
   531.28         5.5298
   531.42         5.5034
   531.56         5.4672
   531.70         5.4219
   531.84         5.3689
   531.98         5.3109
   532.12         5.2510
   532.26         5.1933
   532.40         5.1427
   532.54         5.1033
   532.68         5.0782
   532.82         5.0682
   532.96         5.0726
   533.10         5.0898
   533.24         5.1168
   533.38         5.1505
   533.52         5.1879
   533.66         5.2253
   533.80         5.2597
   533.94         5.2895
   534.08         5.3158
   534.22         5.3419
   534.36         5.3732
   534.50         5.4152
   534.64         5.4700
   534.78         5.5358
   534.92         5.6084
   535.06         5.6821
   535.20         5.7504
   535.34         5.8069
   535.48         5.8467
   535.62         5.8672
   535.76         5.8672
   535.90         5.8468
   536.04         5.8077
   536.18         5.7542
   536.32         5.6931
   536.46         5.6326
   536.60         5.5808
   536.74         5.5441
   536.88         5.5261
   537.02         5.5273
   537.16         5.5458
   537.30         5.5782
   537.44         5.6203
   537.58         5.6675
   537.72         5.7142
   537.86         5.7543
   538.00         5.7827
   538.14         5.7959
   538.28         5.7923
   538.42         5.7711
   538.56         5.7342
   538.70         5.6868
   538.84         5.6355
   538.98         5.5864
   539.12         5.5433
   539.26         5.5081
   539.40         5.4812
   539.54         5.4619
   539.68         5.4487
   539.82         5.4392
   539.96         5.4322
   540.10         5.4278
   540.24         5.4278
   540.38         5.4342
   540.52         5.4495
   540.66         5.4764
   540.80         5.5164
   540.94         5.5695
   541.08         5.6345
   541.22         5.7093
   541.36         5.7909
   541.50         5.8740
   541.64         5.9515
   541.78         6.0161
   541.92         6.0621
   542.06         6.0862
   542.20         6.0868
   542.34         6.0650
   542.48         6.0244
   542.62         5.9714
   542.76         5.9141
   542.90         5.8609
   543.04         5.8191
   543.18         5.7946
   543.32         5.7890
   543.46         5.7985
   543.60         5.8144
   543.74         5.8253
   543.88         5.8197
   544.02         5.7870
   544.16         5.7188
   544.30         5.6099
   544.44         5.4598
   544.58         5.2731
   544.72         5.0592
   544.86         4.8312
   545.00         4.6046
   545.14         4.3953
   545.28         4.2178
   545.42         4.0824
   545.56         3.9943
   545.70         3.9527
   545.84         3.9514
   545.98         3.9806
   546.12         4.0292
   546.26         4.0875
   546.40         4.1485
   546.54         4.2072
   546.68         4.2606
   546.82         4.3074
   546.96         4.3471
   547.10         4.3809
   547.24         4.4109
   547.38         4.4401
   547.52         4.4708
   547.66         4.5047
   547.80         4.5423
   547.94         4.5831
   548.08         4.6260
   548.22         4.6701
   548.36         4.7141
   548.50         4.7560
   548.64         4.7925
   548.78         4.8203
   548.92         4.8371
   549.06         4.8417
   549.20         4.8342
   549.34         4.8157
   549.48         4.7872
   549.62         4.7510
   549.76         4.7104
   549.90         4.6696
   550.04         4.6313
   550.18         4.5969
   550.32         4.5674
   550.46         4.5438
   550.60         4.5282
   550.74         4.5233
   550.88         4.5316
   551.02         4.5538
   551.16         4.5895
   551.30         4.6373
   551.44         4.6954
   551.58         4.7615
   551.72         4.8326
   551.86         4.9052
   552.00         4.9761
   552.14         5.0424
   552.28         5.1015
   552.42         5.1512
   552.56         5.1902
   552.70         5.2185
   552.84         5.2381
   552.98         5.2529
   553.12         5.2670
   553.26         5.2842
   553.40         5.3061
   553.54         5.3321
   553.68         5.3614
   553.82         5.3928
   553.96         5.4248
   554.10         5.4562
   554.24         5.4856
   554.38         5.5121
   554.52         5.5346
   554.66         5.5516
   554.80         5.5616
   554.94         5.5642
   555.08         5.5600
   555.22         5.5506
   555.36         5.5374
   555.50         5.5217
   555.64         5.5043
   555.78         5.4856
   555.92         5.4661
   556.06         5.4466
   556.20         5.4280
   556.34         5.4110
   556.48         5.3962
   556.62         5.3845
   556.76         5.3768
   556.90         5.3736
   557.04         5.3747
   557.18         5.3794
   557.32         5.3866
   557.46         5.3952
   557.60         5.4038
   557.74         5.4103
   557.88         5.4125
   558.02         5.4086
   558.16         5.3972
   558.30         5.3783
   558.44         5.3530
   558.58         5.3226
   558.72         5.2870
   558.86         5.2455
   559.00         5.1981
   559.14         5.1454
   559.28         5.0880
   559.42         5.0262
   559.56         4.9608
   559.70         4.8940
   559.84         4.8287
   559.98         4.7689
   560.12         4.7182
   560.26         4.6796
   560.40         4.6547
   560.54         4.6430
   560.68         4.6430
   560.82         4.6515
   560.96         4.6643
   561.10         4.6773
   561.24         4.6862
   561.38         4.6877
   561.52         4.6806
   561.66         4.6661
   561.80         4.6458
   561.94         4.6214
   562.08         4.5954
   562.22         4.5711
   562.36         4.5515
   562.50         4.5383
   562.64         4.5326
   562.78         4.5336
   562.92         4.5393
   563.06         4.5470
   563.20         4.5548
   563.34         4.5618
   563.48         4.5676
   563.62         4.5732
   563.76         4.5798
   563.90         4.5885
   564.04         4.6010
   564.18         4.6190
   564.32         4.6443
   564.46         4.6781
   564.60         4.7200
   564.74         4.7683
   564.88         4.8202
   565.02         4.8719
   565.16         4.9192
   565.30         4.9579
   565.44         4.9850
   565.58         4.9989
   565.72         5.0003
   565.86         4.9902
   566.00         4.9703
   566.14         4.9435
   566.28         4.9133
   566.42         4.8842
   566.56         4.8603
   566.70         4.8454
   566.84         4.8423
   566.98         4.8517
   567.12         4.8729
   567.26         4.9043
   567.40         4.9440
   567.54         4.9902
   567.68         5.0401
   567.82         5.0912
   567.96         5.1415
   568.10         5.1898
   568.24         5.2353
   568.38         5.2769
   568.52         5.3131
   568.66         5.3440
   568.80         5.3699
   568.94         5.3909
   569.08         5.4067
   569.22         5.4172
   569.36         5.4225
   569.50         5.4235
   569.64         5.4203
   569.78         5.4137
   569.92         5.4045
   570.06         5.3943
   570.20         5.3845
   570.34         5.3771
   570.48         5.3743
   570.62         5.3778
   570.76         5.3876
   570.90         5.4027
   571.04         5.4222
   571.18         5.4455
   571.32         5.4720
   571.46         5.5000
   571.60         5.5279
   571.74         5.5538
   571.88         5.5774
   572.02         5.5985
   572.16         5.6179
   572.30         5.6361
   572.44         5.6539
   572.58         5.6719
   572.72         5.6904
   572.86         5.7098
   573.00         5.7304
   573.14         5.7527
   573.28         5.7769
   573.42         5.8032
   573.56         5.8315
   573.70         5.8618
   573.84         5.8938
   573.98         5.9269
   574.12         5.9605
   574.26         5.9943
   574.40         6.0291
   574.54         6.0659
   574.68         6.1040
   574.82         6.1409
   574.96         6.1717
   575.10         6.1908
   575.24         6.1945
   575.38         6.1812
   575.52         6.1517
   575.66         6.1076
   575.80         6.0526
   575.94         5.9909
   576.08         5.9274
   576.22         5.8672
   576.36         5.8147
   576.50         5.7734
   576.64         5.7452
   576.78         5.7302
   576.92         5.7267
   577.06         5.7316
   577.20         5.7402
   577.34         5.7477
   577.48         5.7507
   577.62         5.7480
   577.76         5.7411
   577.90         5.7328
   578.04         5.7263
   578.18         5.7253
   578.32         5.7331
   578.46         5.7527
   578.60         5.7853
   578.74         5.8312
   578.88         5.8900
   579.02         5.9611
   579.16         6.0427
   579.30         6.1320
   579.44         6.2254
   579.58         6.3186
   579.72         6.4080
   579.86         6.4897
   580.00         6.5594
   580.14         6.6128
   580.28         6.6452
   580.42         6.6530
   580.56         6.6342
   580.70         6.5891
   580.84         6.5205
   580.98         6.4328
   581.12         6.3320
   581.26         6.2249
   581.40         6.1195
   581.54         6.0231
   581.68         5.9413
   581.82         5.8780
   581.96         5.8360
   582.10         5.8160
   582.24         5.8167
   582.38         5.8346
   582.52         5.8650
   582.66         5.9025
   582.80         5.9428
   582.94         5.9832
   583.08         6.0219
   583.22         6.0573
   583.36         6.0874
   583.50         6.1094
   583.64         6.1197
   583.78         6.1141
   583.92         6.0891
   584.06         6.0427
   584.20         5.9751
   584.34         5.8878
   584.48         5.7843
   584.62         5.6691
   584.76         5.5474
   584.90         5.4246
   585.04         5.3054
   585.18         5.1937
   585.32         5.0933
   585.46         5.0067
   585.60         4.9355
   585.74         4.8795
   585.88         4.8371
   586.02         4.8052
   586.16         4.7799
   586.30         4.7578
   586.44         4.7365
   586.58         4.7143
   586.72         4.6903
   586.86         4.6639
   587.00         4.6350
   587.14         4.6042
   587.28         4.5727
   587.42         4.5413
   587.56         4.5096
   587.70         4.4759
   587.84         4.4390
   587.98         4.3995
   588.12         4.3587
   588.26         4.3171
   588.40         4.2745
   588.54         4.2304
   588.68         4.1845
   588.82         4.1381
   588.96         4.0935
   589.10         4.0529
   589.24         4.0187
   589.38         3.9926
   589.52         3.9755
   589.66         3.9674
   589.80         3.9671
   589.94         3.9723
   590.08         3.9797
   590.22         3.9861
   590.36         3.9900
   590.50         3.9918
   590.64         3.9926
   590.78         3.9925
   590.92         3.9910
   591.06         3.9883
   591.20         3.9856
   591.34         3.9839
   591.48         3.9841
   591.62         3.9867
   591.76         3.9920
   591.90         4.0005
   592.04         4.0126
   592.18         4.0288
   592.32         4.0496
   592.46         4.0760
   592.60         4.1085
   592.74         4.1467
   592.88         4.1894
   593.02         4.2350
   593.16         4.2822
   593.30         4.3296
   593.44         4.3760
   593.58         4.4198
   593.72         4.4591
   593.86         4.4924
   594.00         4.5184
   594.14         4.5362
   594.28         4.5457
   594.42         4.5468
   594.56         4.5398
   594.70         4.5264
   594.84         4.5091
   594.98         4.4909
   595.12         4.4749
   595.26         4.4627
   595.40         4.4555
   595.54         4.4548
   595.68         4.4623
   595.82         4.4793
   595.96         4.5057
   596.10         4.5397
   596.24         4.5787
   596.38         4.6201
   596.52         4.6611
   596.66         4.6986
   596.80         4.7304
   596.94         4.7550
   597.08         4.7726
   597.22         4.7843
   597.36         4.7915
   597.50         4.7966
   597.64         4.8015
   597.78         4.8087
   597.92         4.8211
   598.06         4.8421
   598.20         4.8748
   598.34         4.9206
   598.48         4.9792
   598.62         5.0478
   598.76         5.1222
   598.90         5.1968
   599.04         5.2665
   599.18         5.3264
   599.32         5.3734
   599.46         5.4050
   599.60         5.4198
   599.74         5.4180
   599.88         5.4015
   600.02         5.3741
   600.16         5.3408
   600.30         5.3070
   600.44         5.2777
   600.58         5.2577
   600.72         5.2499
   600.86         5.2557
   601.00         5.2751
   601.14         5.3073
   601.28         5.3503
   601.42         5.4016
   601.56         5.4584
   601.70         5.5177
   601.84         5.5766
   601.98         5.6324
   602.12         5.6829
   602.26         5.7276
   602.40         5.7662
   602.54         5.7990
   602.68         5.8264
   602.82         5.8498
   602.96         5.8715
   603.10         5.8941
   603.24         5.9202
   603.38         5.9526
   603.52         5.9929
   603.66         6.0421
   603.80         6.0990
   603.94         6.1611
   604.08         6.2253
   604.22         6.2879
   604.36         6.3450
   604.50         6.3928
   604.64         6.4284
   604.78         6.4504
   604.92         6.4591
   605.06         6.4554
   605.20         6.4411
   605.34         6.4185
   605.48         6.3910
   605.62         6.3631
   605.76         6.3400
   605.90         6.3268
   606.04         6.3270
   606.18         6.3420
   606.32         6.3713
   606.46         6.4129
   606.60         6.4637
   606.74         6.5193
   606.88         6.5746
   607.02         6.6251
   607.16         6.6675
   607.30         6.7007
   607.44         6.7253
   607.58         6.7421
   607.72         6.7521
   607.86         6.7562
   608.00         6.7562
   608.14         6.7556
   608.28         6.7582
   608.42         6.7664
   608.56         6.7812
   608.70         6.8023
   608.84         6.8283
   608.98         6.8567
   609.12         6.8838
   609.26         6.9064
   609.40         6.9224
   609.54         6.9316
   609.68         6.9350
   609.82         6.9343
   609.96         6.9313
   610.10         6.9281
   610.24         6.9272
   610.38         6.9309
   610.52         6.9407
   610.66         6.9579
   610.80         6.9824
   610.94         7.0110
   611.08         7.0393
   611.22         7.0638
   611.36         7.0819
   611.50         7.0912
   611.64         7.0909
   611.78         7.0828
   611.92         7.0712
   612.06         7.0615
   612.20         7.0568
   612.34         7.0581
   612.48         7.0642
   612.62         7.0738
   612.76         7.0866
   612.90         7.1030
   613.04         7.1221
   613.18         7.1420
   613.32         7.1615
   613.46         7.1809
   613.60         7.2019
   613.74         7.2246
   613.88         7.2470
   614.02         7.2651
   614.16         7.2758
   614.30         7.2768
   614.44         7.2654
   614.58         7.2383
   614.72         7.1900
   614.86         7.1139
   615.00         7.0048
   615.14         6.8605
   615.28         6.6823
   615.42         6.4748
   615.56         6.2445
   615.70         5.9982
   615.84         5.7442
   615.98         5.4918
   616.12         5.2505
   616.26         5.0281
   616.40         4.8304
   616.54         4.6626
   616.68         4.5299
   616.82         4.4352
   616.96         4.3772
   617.10         4.3506
   617.24         4.3473
   617.38         4.3582
   617.52         4.3741
   617.66         4.3875
   617.80         4.3926
   617.94         4.3864
   618.08         4.3671
   618.22         4.3334
   618.36         4.2855
   618.50         4.2258
   618.64         4.1596
   618.78         4.0928
   618.92         4.0308
   619.06         3.9785
   619.20         3.9406
   619.34         3.9210
   619.48         3.9216
   619.62         3.9414
   619.76         3.9777
   619.90         4.0263
   620.04         4.0823
   620.18         4.1398
   620.32         4.1926
   620.46         4.2351
   620.60         4.2624
   620.74         4.2715
   620.88         4.2615
   621.02         4.2340
   621.16         4.1917
   621.30         4.1369
   621.44         4.0717
   621.58         3.9987
   621.72         3.9215
   621.86         3.8444
   622.00         3.7708
   622.14         3.7040
   622.28         3.6466
   622.42         3.6006
   622.56         3.5670
   622.70         3.5453
   622.84         3.5343
   622.98         3.5317
   623.12         3.5357
   623.26         3.5452
   623.40         3.5595
   623.54         3.5784
   623.68         3.6023
   623.82         3.6318
   623.96         3.6672
   624.10         3.7086
   624.24         3.7558
   624.38         3.8090
   624.52         3.8674
   624.66         3.9290
   624.80         3.9910
   624.94         4.0505
   625.08         4.1055
   625.22         4.1546
   625.36         4.1974
   625.50         4.2345
   625.64         4.2673
   625.78         4.2977
   625.92         4.3267
   626.06         4.3555
   626.20         4.3858
   626.34         4.4184
   626.48         4.4523
   626.62         4.4854
   626.76         4.5153
   626.90         4.5397
   627.04         4.5568
   627.18         4.5652
   627.32         4.5653
   627.46         4.5597
   627.60         4.5529
   627.74         4.5509
   627.88         4.5587
   628.02         4.5797
   628.16         4.6144
   628.30         4.6607
   628.44         4.7150
   628.58         4.7736
   628.72         4.8336
   628.86         4.8922
   629.00         4.9466
   629.14         4.9948
   629.28         5.0357
   629.42         5.0695
   629.56         5.0976
   629.70         5.1229
   629.84         5.1494
   629.98         5.1815
   630.12         5.2223
   630.26         5.2736
   630.40         5.3359
   630.54         5.4076
   630.68         5.4855
   630.82         5.5659
   630.96         5.6454
   631.10         5.7214
   631.24         5.7917
   631.38         5.8547
   631.52         5.9100
   631.66         5.9580
   631.80         6.0007
   631.94         6.0405
   632.08         6.0791
   632.22         6.1186
   632.36         6.1606
   632.50         6.2049
   632.64         6.2500
   632.78         6.2945
   632.92         6.3383
   633.06         6.3824
   633.20         6.4276
   633.34         6.4730
   633.48         6.5162
   633.62         6.5558
   633.76         6.5917
   633.90         6.6250
   634.04         6.6575
   634.18         6.6905
   634.32         6.7237
   634.46         6.7544
   634.60         6.7787
   634.74         6.7928
   634.88         6.7936
   635.02         6.7791
   635.16         6.7489
   635.30         6.7054
   635.44         6.6531
   635.58         6.5976
   635.72         6.5447
   635.86         6.4992
   636.00         6.4651
   636.14         6.4472
   636.28         6.4507
   636.42         6.4783
   636.56         6.5290
   636.70         6.5989
   636.84         6.6810
   636.98         6.7684
   637.12         6.8546
   637.26         6.9344
   637.40         7.0036
   637.54         7.0594
   637.68         7.1011
   637.82         7.1296
   637.96         7.1468
   638.10         7.1555
   638.24         7.1584
   638.38         7.1583
   638.52         7.1587
   638.66         7.1634
   638.80         7.1755
   638.94         7.1967
   639.08         7.2273
   639.22         7.2673
   639.36         7.3164
   639.50         7.3743
   639.64         7.4400
   639.78         7.5112
   639.92         7.5841
   640.06         7.6544
   640.20         7.7172
   640.34         7.7672
   640.48         7.8007
   640.62         7.8150
   640.76         7.8090
   640.90         7.7826
   641.04         7.7381
   641.18         7.6797
   641.32         7.6123
   641.46         7.5414
   641.60         7.4729
   641.74         7.4125
   641.88         7.3643
   642.02         7.3302
   642.16         7.3107
   642.30         7.3051
   642.44         7.3116
   642.58         7.3287
   642.72         7.3544
   642.86         7.3864
   643.00         7.4243
   643.14         7.4691
   643.28         7.5215
   643.42         7.5805
   643.56         7.6438
   643.70         7.7079
   643.84         7.7678
   643.98         7.8178
   644.12         7.8525
   644.26         7.8690
   644.40         7.8667
   644.54         7.8474
   644.68         7.8152
   644.82         7.7769
   644.96         7.7397
   645.10         7.7104
   645.24         7.6945
   645.38         7.6965
   645.52         7.7193
   645.66         7.7634
   645.80         7.8259
   645.94         7.9004
   646.08         7.9781
   646.22         8.0510
   646.36         8.1124
   646.50         8.1584
   646.64         8.1884
   646.78         8.2027
   646.92         8.2012
   647.06         8.1829
   647.20         8.1465
   647.34         8.0923
   647.48         8.0225
   647.62         7.9405
   647.76         7.8509
   647.90         7.7587
   648.04         7.6690
   648.18         7.5859
   648.32         7.5115
   648.46         7.4459
   648.60         7.3884
   648.74         7.3376
   648.88         7.2934
   649.02         7.2565
   649.16         7.2288
   649.30         7.2114
   649.44         7.2041
   649.58         7.2066
   649.72         7.2191
   649.86         7.2420
   650.00         7.2757
   650.14         7.3197
   650.28         7.3722
   650.42         7.4293
   650.56         7.4855
   650.70         7.5355
   650.84         7.5745
   650.98         7.6001
   651.12         7.6132
   651.26         7.6176
   651.40         7.6187
   651.54         7.6224
   651.68         7.6341
   651.82         7.6578
   651.96         7.6948
   652.10         7.7443
   652.24         7.8047
   652.38         7.8738
   652.52         7.9487
   652.66         8.0268
   652.80         8.1051
   652.94         8.1815
   653.08         8.2536
   653.22         8.3187
   653.36         8.3746
   653.50         8.4190
   653.64         8.4502
   653.78         8.4660
   653.92         8.4636
   654.06         8.4418
   654.20         8.4007
   654.34         8.3419
   654.48         8.2674
   654.62         8.1804
   654.76         8.0861
   654.90         7.9904
   655.04         7.8967
   655.18         7.8054
   655.32         7.7167
   655.46         7.6328
   655.60         7.5570
   655.74         7.4917
   655.88         7.4381
   656.02         7.3971
   656.16         7.3691
   656.30         7.3535
   656.44         7.3502
   656.58         7.3593
   656.72         7.3797
   656.86         7.4081
   657.00         7.4408
   657.14         7.4752
   657.28         7.5094
   657.42         7.5417
   657.56         7.5705
   657.70         7.5948
   657.84         7.6172
   657.98         7.6427
   658.12         7.6741
   658.26         7.7090
   658.40         7.7419
   658.54         7.7669
   658.68         7.7798
   658.82         7.7782
   658.96         7.7633
   659.10         7.7383
   659.24         7.7064
   659.38         7.6703
   659.52         7.6331
   659.66         7.5987
   659.80         7.5705
   659.94         7.5504
   660.08         7.5398
   660.22         7.5389
   660.36         7.5468
   660.50         7.5615
   660.64         7.5792
   660.78         7.5945
   660.92         7.6040
   661.06         7.6064
   661.20         7.6019
   661.34         7.5898
   661.48         7.5698
   661.62         7.5414
   661.76         7.5047
   661.90         7.4607
   662.04         7.4112
   662.18         7.3584
   662.32         7.3049
   662.46         7.2530
   662.60         7.2047
   662.74         7.1621
   662.88         7.1273
   663.02         7.1017
   663.16         7.0854
   663.30         7.0770
   663.44         7.0746
   663.58         7.0767
   663.72         7.0808
   663.86         7.0822
   664.00         7.0755
   664.14         7.0565
   664.28         7.0235
   664.42         6.9760
   664.56         6.9141
   664.70         6.8391
   664.84         6.7534
   664.98         6.6610
   665.12         6.5675
   665.26         6.4787
   665.40         6.4011
   665.54         6.3396
   665.68         6.2970
   665.82         6.2741
   665.96         6.2710
   666.10         6.2868
   666.24         6.3184
   666.38         6.3606
   666.52         6.4074
   666.66         6.4535
   666.80         6.4940
   666.94         6.5239
   667.08         6.5383
   667.22         6.5340
   667.36         6.5103
   667.50         6.4686
   667.64         6.4115
   667.78         6.3433
   667.92         6.2691
   668.06         6.1941
   668.20         6.1232
   668.34         6.0605
   668.48         6.0094
   668.62         5.9711
   668.76         5.9453
   668.90         5.9311
   669.04         5.9282
   669.18         5.9362
   669.32         5.9544
   669.46         5.9823
   669.60         6.0190
   669.74         6.0642
   669.88         6.1166
   670.02         6.1733
   670.16         6.2285
   670.30         6.2745
   670.44         6.3028
   670.58         6.3057
   670.72         6.2779
   670.86         6.2179
   671.00         6.1282
   671.14         6.0144
   671.28         5.8849
   671.42         5.7501
   671.56         5.6206
   671.70         5.5056
   671.84         5.4126
   671.98         5.3466
   672.12         5.3095
   672.26         5.3002
   672.40         5.3153
   672.54         5.3495
   672.68         5.3965
   672.82         5.4498
   672.96         5.5035
   673.10         5.5544
   673.24         5.6015
   673.38         5.6456
   673.52         5.6875
   673.66         5.7267
   673.80         5.7612
   673.94         5.7891
   674.08         5.8087
   674.22         5.8188
   674.36         5.8198
   674.50         5.8134
   674.64         5.8021
   674.78         5.7888
   674.92         5.7773
   675.06         5.7710
   675.20         5.7738
   675.34         5.7893
   675.48         5.8198
   675.62         5.8660
   675.76         5.9268
   675.90         5.9988
   676.04         6.0775
   676.18         6.1580
   676.32         6.2367
   676.46         6.3113
   676.60         6.3809
   676.74         6.4455
   676.88         6.5049
   677.02         6.5571
   677.16         6.5983
   677.30         6.6236
   677.44         6.6294
   677.58         6.6146
   677.72         6.5802
   677.86         6.5290
   678.00         6.4647
   678.14         6.3918
   678.28         6.3145
   678.42         6.2383
   678.56         6.1692
   678.70         6.1140
   678.84         6.0781
   678.98         6.0649
   679.12         6.0754
   679.26         6.1087
   679.40         6.1607
   679.54         6.2246
   679.68         6.2931
   679.82         6.3608
   679.96         6.4250
   680.10         6.4853
   680.24         6.5410
   680.38         6.5901
   680.52         6.6305
   680.66         6.6607
   680.80         6.6806
   680.94         6.6915
   681.08         6.6960
   681.22         6.6977
   681.36         6.7001
   681.50         6.7063
   681.64         6.7188
   681.78         6.7387
   681.92         6.7651
   682.06         6.7963
   682.20         6.8310
   682.34         6.8692
   682.48         6.9120
   682.62         6.9601
   682.76         7.0128
   682.90         7.0676
   683.04         7.1221
   683.18         7.1755
   683.32         7.2291
   683.46         7.2845
   683.60         7.3423
   683.74         7.4014
   683.88         7.4582
   684.02         7.5083
   684.16         7.5466
   684.30         7.5680
   684.44         7.5696
   684.58         7.5514
   684.72         7.5169
   684.86         7.4714
   685.00         7.4202
   685.14         7.3678
   685.28         7.3181
   685.42         7.2742
   685.56         7.2379
   685.70         7.2086
   685.84         7.1822
   685.98         7.1523
   686.12         7.1117
   686.26         7.0548
   686.40         6.9793
   686.54         6.8873
   686.68         6.7856
   686.82         6.6839
   686.96         6.5942
   687.10         6.5283
   687.24         6.4958
   687.38         6.5011
   687.52         6.5434
   687.66         6.6170
   687.80         6.7144
   687.94         6.8258
   688.08         6.9405
   688.22         7.0468
   688.36         7.1353
   688.50         7.2018
   688.64         7.2484
   688.78         7.2809
   688.92         7.3065
   689.06         7.3326
   689.20         7.3658
   689.34         7.4111
   689.48         7.4711
   689.62         7.5462
   689.76         7.6348
   689.90         7.7333
   690.04         7.8372
   690.18         7.9430
   690.32         8.0482
   690.46         8.1504
   690.60         8.2477
   690.74         8.3378
   690.88         8.4179
   691.02         8.4860
   691.16         8.5402
   691.30         8.5782
   691.44         8.5990
   691.58         8.6041
   691.72         8.5982
   691.86         8.5863
   692.00         8.5726
   692.14         8.5615
   692.28         8.5580
   692.42         8.5661
   692.56         8.5879
   692.70         8.6238
   692.84         8.6723
   692.98         8.7305
   693.12         8.7949
   693.26         8.8617
   693.40         8.9268
   693.54         8.9866
   693.68         9.0393
   693.82         9.0857
   693.96         9.1286
   694.10         9.1712
   694.24         9.2151
   694.38         9.2603
   694.52         9.3066
   694.66         9.3548
   694.80         9.4069
   694.94         9.4639
   695.08         9.5258
   695.22         9.5926
   695.36         9.6648
   695.50         9.7425
   695.64         9.8257
   695.78         9.9139
   695.92         10.0055
   696.06         10.0993
   696.20         10.1937
   696.34         10.2874
   696.48         10.3778
   696.62         10.4596
   696.76         10.5263
   696.90         10.5732
   697.04         10.5999
   697.18         10.6098
   697.32         10.6071
   697.46         10.5966
   697.60         10.5830
   697.74         10.5698
   697.88         10.5584
   698.02         10.5484
   698.16         10.5409
   698.30         10.5378
   698.44         10.5404
   698.58         10.5477
   698.72         10.5580
   698.86         10.5688
   699.00         10.5778
   699.14         10.5831
   699.28         10.5845
   699.42         10.5838
   699.56         10.5844
   699.70         10.5901
   699.84         10.6034
   699.98         10.6254
   700.12         10.6557
   700.26         10.6918
   700.40         10.7292
   700.54         10.7633
   700.68         10.7925
   700.82         10.8178
   700.96         10.8403
   701.10         10.8604
   701.24         10.8782
   701.38         10.8940
   701.52         10.9087
   701.66         10.9228
   701.80         10.9371
   701.94         10.9528
   702.08         10.9710
   702.22         10.9921
   702.36         11.0163
   702.50         11.0445
   702.64         11.0759
   702.78         11.1070
   702.92         11.1340
   703.06         11.1548
   703.20         11.1707
   703.34         11.1848
   703.48         11.2001
   703.62         11.2185
   703.76         11.2408
   703.90         11.2665
   704.04         11.2930
   704.18         11.3132
   704.32         11.3141
   704.46         11.2799
   704.60         11.1976
   704.74         11.0578
   704.88         10.8547
   705.02         10.5883
   705.16         10.2639
   705.30         9.8912
   705.44         9.4858
   705.58         9.0684
   705.72         8.6627
   705.86         8.2914
   706.00         7.9742
   706.14         7.7260
   706.28         7.5553
   706.42         7.4622
   706.56         7.4394
   706.70         7.4736
   706.84         7.5487
   706.98         7.6496
   707.12         7.7658
   707.26         7.8894
   707.40         8.0098
   707.54         8.1125
   707.68         8.1835
   707.82         8.2115
   707.96         8.1895
   708.10         8.1152
   708.24         7.9906
   708.38         7.8217
   708.52         7.6176
   708.66         7.3902
   708.80         7.1533
   708.94         6.9209
   709.08         6.7066
   709.22         6.5225
   709.36         6.3782
   709.50         6.2802
   709.64         6.2312
   709.78         6.2296
   709.92         6.2681
   710.06         6.3363
   710.20         6.4237
   710.34         6.5214
   710.48         6.6243
   710.62         6.7302
   710.76         6.8385
   710.90         6.9483
   711.04         7.0583
   711.18         7.1656
   711.32         7.2622
   711.46         7.3367
   711.60         7.3780
   711.74         7.3772
   711.88         7.3289
   712.02         7.2313
   712.16         7.0873
   712.30         6.9029
   712.44         6.6870
   712.58         6.4508
   712.72         6.2086
   712.86         5.9760
   713.00         5.7686
   713.14         5.6000
   713.28         5.4797
   713.42         5.4106
   713.56         5.3904
   713.70         5.4123
   713.84         5.4661
   713.98         5.5410
   714.12         5.6299
   714.26         5.7292
   714.40         5.8355
   714.54         5.9452
   714.68         6.0539
   714.82         6.1563
   714.96         6.2474
   715.10         6.3235
   715.24         6.3821
   715.38         6.4233
   715.52         6.4489
   715.66         6.4624
   715.80         6.4681
   715.94         6.4695
   716.08         6.4697
   716.22         6.4710
   716.36         6.4762
   716.50         6.4879
   716.64         6.5082
   716.78         6.5377
   716.92         6.5747
   717.06         6.6167
   717.20         6.6616
   717.34         6.7065
   717.48         6.7476
   717.62         6.7821
   717.76         6.8095
   717.90         6.8316
   718.04         6.8510
   718.18         6.8705
   718.32         6.8924
   718.46         6.9169
   718.60         6.9420
   718.74         6.9659
   718.88         6.9873
   719.02         7.0049
   719.16         7.0166
   719.30         7.0195
   719.44         7.0106
   719.58         6.9885
   719.72         6.9545
   719.86         6.9123
   720.00         6.8664
   720.14         6.8238
   720.28         6.7940
   720.42         6.7860
   720.56         6.8049
   720.70         6.8524
   720.84         6.9273
   720.98         7.0259
   721.12         7.1422
   721.26         7.2702
   721.40         7.4045
   721.54         7.5395
   721.68         7.6696
   721.82         7.7896
   721.96         7.8964
   722.10         7.9879
   722.24         8.0637
   722.38         8.1248
   722.52         8.1733
   722.66         8.2122
   722.80         8.2444
   722.94         8.2710
   723.08         8.2930
   723.22         8.3113
   723.36         8.3279
   723.50         8.3456
   723.64         8.3695
   723.78         8.4045
   723.92         8.4528
   724.06         8.5130
   724.20         8.5822
   724.34         8.6581
   724.48         8.7395
   724.62         8.8251
   724.76         8.9124
   724.90         8.9991
   725.04         9.0837
   725.18         9.1656
   725.32         9.2440
   725.46         9.3175
   725.60         9.3868
   725.74         9.4537
   725.88         9.5187
   726.02         9.5810
   726.16         9.6390
   726.30         9.6898
   726.44         9.7292
   726.58         9.7546
   726.72         9.7668
   726.86         9.7701
   727.00         9.7703
   727.14         9.7735
   727.28         9.7850
   727.42         9.8087
   727.56         9.8465
   727.70         9.8984
   727.84         9.9619
   727.98         10.0307
   728.12         10.0984
   728.26         10.1606
   728.40         10.2151
   728.54         10.2621
   728.68         10.3040
   728.82         10.3439
   728.96         10.3854
   729.10         10.4313
   729.24         10.4822
   729.38         10.5374
   729.52         10.5962
   729.66         10.6581
   729.80         10.7217
   729.94         10.7840
   730.08         10.8407
   730.22         10.8881
   730.36         10.9243
   730.50         10.9490
   730.64         10.9645
   730.78         10.9760
   730.92         10.9904
   731.06         11.0122
   731.20         11.0426
   731.34         11.0795
   731.48         11.1200
   731.62         11.1628
   731.76         11.2068
   731.90         11.2508
   732.04         11.2953
   732.18         11.3408
   732.32         11.3869
   732.46         11.4330
   732.60         11.4793
   732.74         11.5268
   732.88         11.5781
   733.02         11.6353
   733.16         11.6991
   733.30         11.7685
   733.44         11.8408
   733.58         11.9127
   733.72         11.9809
   733.86         12.0415
   734.00         12.0906
   734.14         12.1254
   734.28         12.1450
   734.42         12.1490
   734.56         12.1370
   734.70         12.1095
   734.84         12.0700
   734.98         12.0253
   735.12         11.9821
   735.26         11.9442
   735.40         11.9125
   735.54         11.8870
   735.68         11.8669
   735.82         11.8514
   735.96         11.8412
   736.10         11.8395
   736.24         11.8498
   736.38         11.8741
   736.52         11.9113
   736.66         11.9591
   736.80         12.0155
   736.94         12.0786
   737.08         12.1458
   737.22         12.2138
   737.36         12.2796
   737.50         12.3409
   737.64         12.3946
   737.78         12.4360
   737.92         12.4602
   738.06         12.4651
   738.20         12.4524
   738.34         12.4253
   738.48         12.3876
   738.62         12.3433
   738.76         12.2965
   738.90         12.2510
   739.04         12.2101
   739.18         12.1772
   739.32         12.1565
   739.46         12.1515
   739.60         12.1638
   739.74         12.1922
   739.88         12.2328
   740.02         12.2809
   740.16         12.3317
   740.30         12.3802
   740.44         12.4208
   740.58         12.4491
   740.72         12.4622
   740.86         12.4595
   741.00         12.4419
   741.14         12.4114
   741.28         12.3700
   741.42         12.3206
   741.56         12.2672
   741.70         12.2142
   741.84         12.1656
   741.98         12.1234
   742.12         12.0881
   742.26         12.0600
   742.40         12.0387
   742.54         12.0233
   742.68         12.0129
   742.82         12.0076
   742.96         12.0076
   743.10         12.0129
   743.24         12.0233
   743.38         12.0387
   743.52         12.0600
   743.66         12.0881
   743.80         12.1234
   743.94         12.1656
   744.08         12.2142
   744.22         12.2672
