# File SAO62808
# Wavelength [nm]    Normalized Amplitude
   349.70         0.8496
   349.84         0.8487
   349.98         0.8518
   350.12         0.8578
   350.26         0.8652
   350.40         0.8730
   350.54         0.8803
   350.68         0.8867
   350.82         0.8916
   350.96         0.8946
   351.10         0.8957
   351.24         0.8946
   351.38         0.8916
   351.52         0.8867
   351.66         0.8803
   351.80         0.8730
   351.94         0.8652
   352.08         0.8578
   352.22         0.8518
   352.36         0.8487
   352.50         0.8496
   352.64         0.8544
   352.78         0.8623
   352.92         0.8729
   353.06         0.8861
   353.20         0.9007
   353.34         0.9152
   353.48         0.9282
   353.62         0.9388
   353.76         0.9455
   353.90         0.9467
   354.04         0.9420
   354.18         0.9324
   354.32         0.9192
   354.46         0.9040
   354.60         0.8891
   354.74         0.8768
   354.88         0.8688
   355.02         0.8658
   355.16         0.8674
   355.30         0.8723
   355.44         0.8788
   355.58         0.8844
   355.72         0.8871
   355.86         0.8849
   356.00         0.8763
   356.14         0.8609
   356.28         0.8385
   356.42         0.8096
   356.56         0.7754
   356.70         0.7384
   356.84         0.7011
   356.98         0.6661
   357.12         0.6358
   357.26         0.6115
   357.40         0.5935
   357.54         0.5818
   357.68         0.5763
   357.82         0.5772
   357.96         0.5841
   358.10         0.5963
   358.24         0.6131
   358.38         0.6344
   358.52         0.6596
   358.66         0.6875
   358.80         0.7168
   358.94         0.7462
   359.08         0.7740
   359.22         0.7986
   359.36         0.8188
   359.50         0.8343
   359.64         0.8454
   359.78         0.8522
   359.92         0.8551
   360.06         0.8552
   360.20         0.8543
   360.34         0.8545
   360.48         0.8559
   360.62         0.8577
   360.76         0.8595
   360.90         0.8615
   361.04         0.8632
   361.18         0.8636
   361.32         0.8626
   361.46         0.8612
   361.60         0.8612
   361.74         0.8642
   361.88         0.8708
   362.02         0.8818
   362.16         0.8975
   362.30         0.9174
   362.44         0.9392
   362.58         0.9608
   362.72         0.9804
   362.86         0.9977
   363.00         1.0119
   363.14         1.0216
   363.28         1.0262
   363.42         1.0264
   363.56         1.0233
   363.70         1.0177
   363.84         1.0105
   363.98         1.0036
   364.12         0.9988
   364.26         0.9964
   364.40         0.9958
   364.54         0.9966
   364.68         0.9992
   364.82         1.0044
   364.96         1.0127
   365.10         1.0243
   365.24         1.0393
   365.38         1.0567
   365.52         1.0742
   365.66         1.0890
   365.80         1.0991
   365.94         1.1038
   366.08         1.1042
   366.22         1.1017
   366.36         1.0983
   366.50         1.0955
   366.64         1.0944
   366.78         1.0954
   366.92         1.0981
   367.06         1.1027
   367.20         1.1086
   367.34         1.1147
   367.48         1.1193
   367.62         1.1203
   367.76         1.1163
   367.90         1.1068
   368.04         1.0928
   368.18         1.0767
   368.32         1.0615
   368.46         1.0496
   368.60         1.0424
   368.74         1.0402
   368.88         1.0426
   369.02         1.0491
   369.16         1.0584
   369.30         1.0686
   369.44         1.0775
   369.58         1.0832
   369.72         1.0847
   369.86         1.0818
   370.00         1.0749
   370.14         1.0663
   370.28         1.0587
   370.42         1.0545
   370.56         1.0553
   370.70         1.0605
   370.84         1.0685
   370.98         1.0765
   371.12         1.0819
   371.26         1.0828
   371.40         1.0783
   371.54         1.0681
   371.68         1.0514
   371.82         1.0280
   371.96         0.9982
   372.10         0.9641
   372.24         0.9282
   372.38         0.8927
   372.52         0.8599
   372.66         0.8312
   372.80         0.8082
   372.94         0.7914
   373.08         0.7807
   373.22         0.7755
   373.36         0.7744
   373.50         0.7760
   373.64         0.7794
   373.78         0.7837
   373.92         0.7884
   374.06         0.7938
   374.20         0.8006
   374.34         0.8099
   374.48         0.8224
   374.62         0.8378
   374.76         0.8549
   374.90         0.8722
   375.04         0.8884
   375.18         0.9027
   375.32         0.9138
   375.46         0.9210
   375.60         0.9236
   375.74         0.9220
   375.88         0.9174
   376.02         0.9115
   376.16         0.9072
   376.30         0.9079
   376.44         0.9162
   376.58         0.9341
   376.72         0.9614
   376.86         0.9966
   377.00         1.0372
   377.14         1.0798
   377.28         1.1209
   377.42         1.1570
   377.56         1.1853
   377.70         1.2039
   377.84         1.2121
   377.98         1.2101
   378.12         1.1990
   378.26         1.1806
   378.40         1.1565
   378.54         1.1279
   378.68         1.0967
   378.82         1.0646
   378.96         1.0333
   379.10         1.0054
   379.24         0.9833
   379.38         0.9688
   379.52         0.9624
   379.66         0.9639
   379.80         0.9720
   379.94         0.9848
   380.08         1.0000
   380.22         1.0150
   380.36         1.0273
   380.50         1.0352
   380.64         1.0375
   380.78         1.0333
   380.92         1.0216
   381.06         1.0023
   381.20         0.9763
   381.34         0.9451
   381.48         0.9109
   381.62         0.8765
   381.76         0.8443
   381.90         0.8160
   382.04         0.7920
   382.18         0.7728
   382.32         0.7589
   382.46         0.7506
   382.60         0.7473
   382.74         0.7478
   382.88         0.7510
   383.02         0.7562
   383.16         0.7628
   383.30         0.7703
   383.44         0.7782
   383.58         0.7865
   383.72         0.7951
   383.86         0.8039
   384.00         0.8130
   384.14         0.8229
   384.28         0.8332
   384.42         0.8431
   384.56         0.8515
   384.70         0.8573
   384.84         0.8598
   384.98         0.8593
   385.12         0.8565
   385.26         0.8522
   385.40         0.8473
   385.54         0.8428
   385.68         0.8400
   385.82         0.8397
   385.96         0.8427
   386.10         0.8489
   386.24         0.8578
   386.38         0.8686
   386.52         0.8807
   386.66         0.8938
   386.80         0.9070
   386.94         0.9193
   387.08         0.9298
   387.22         0.9379
   387.36         0.9435
   387.50         0.9469
   387.64         0.9488
   387.78         0.9502
   387.92         0.9527
   388.06         0.9577
   388.20         0.9664
   388.34         0.9792
   388.48         0.9958
   388.62         1.0154
   388.76         1.0364
   388.90         1.0574
   389.04         1.0771
   389.18         1.0949
   389.32         1.1100
   389.46         1.1213
   389.60         1.1281
   389.74         1.1309
   389.88         1.1309
   390.02         1.1297
   390.16         1.1287
   390.30         1.1290
   390.44         1.1315
   390.58         1.1360
   390.72         1.1409
   390.86         1.1441
   391.00         1.1432
   391.14         1.1370
   391.28         1.1252
   391.42         1.1075
   391.56         1.0839
   391.70         1.0548
   391.84         1.0205
   391.98         0.9816
   392.12         0.9390
   392.26         0.8944
   392.40         0.8499
   392.54         0.8071
   392.68         0.7677
   392.82         0.7336
   392.96         0.7059
   393.10         0.6856
   393.24         0.6732
   393.38         0.6689
   393.52         0.6728
   393.66         0.6851
   393.80         0.7062
   393.94         0.7359
   394.08         0.7735
   394.22         0.8182
   394.36         0.8688
   394.50         0.9230
   394.64         0.9781
   394.78         1.0308
   394.92         1.0776
   395.06         1.1152
   395.20         1.1408
   395.34         1.1521
   395.48         1.1480
   395.62         1.1283
   395.76         1.0945
   395.90         1.0496
   396.04         0.9979
   396.18         0.9450
   396.32         0.8964
   396.46         0.8572
   396.60         0.8315
   396.74         0.8221
   396.88         0.8300
   397.02         0.8545
   397.16         0.8936
   397.30         0.9452
   397.44         1.0065
   397.58         1.0742
   397.72         1.1452
   397.86         1.2164
   398.00         1.2850
   398.14         1.3492
   398.28         1.4075
   398.42         1.4591
   398.56         1.5035
   398.70         1.5408
   398.84         1.5714
   398.98         1.5965
   399.12         1.6177
   399.26         1.6361
   399.40         1.6524
   399.54         1.6669
   399.68         1.6796
   399.82         1.6911
   399.96         1.7021
   400.10         1.7135
   400.24         1.7259
   400.38         1.7396
   400.52         1.7553
   400.66         1.7735
   400.80         1.7939
   400.94         1.8154
   401.08         1.8361
   401.22         1.8549
   401.36         1.8710
   401.50         1.8842
   401.64         1.8939
   401.78         1.8987
   401.92         1.8968
   402.06         1.8869
   402.20         1.8694
   402.34         1.8462
   402.48         1.8205
   402.62         1.7964
   402.76         1.7771
   402.90         1.7645
   403.04         1.7591
   403.18         1.7601
   403.32         1.7653
   403.46         1.7726
   403.60         1.7806
   403.74         1.7892
   403.88         1.7985
   404.02         1.8086
   404.16         1.8188
   404.30         1.8280
   404.44         1.8349
   404.58         1.8388
   404.72         1.8405
   404.86         1.8413
   405.00         1.8420
   405.14         1.8424
   405.28         1.8411
   405.42         1.8369
   405.56         1.8298
   405.70         1.8203
   405.84         1.8099
   405.98         1.8006
   406.12         1.7947
   406.26         1.7937
   406.40         1.7970
   406.54         1.8033
   406.68         1.8107
   406.82         1.8182
   406.96         1.8260
   407.10         1.8347
   407.24         1.8454
   407.38         1.8593
   407.52         1.8776
   407.66         1.9016
   407.80         1.9321
   407.94         1.9692
   408.08         2.0115
   408.22         2.0560
   408.36         2.0987
   408.50         2.1353
   408.64         2.1625
   408.78         2.1770
   408.92         2.1763
   409.06         2.1605
   409.20         2.1316
   409.34         2.0940
   409.48         2.0526
   409.62         2.0123
   409.76         1.9769
   409.90         1.9491
   410.04         1.9305
   410.18         1.9218
   410.32         1.9222
   410.46         1.9289
   410.60         1.9389
   410.74         1.9496
   410.88         1.9592
   411.02         1.9665
   411.16         1.9716
   411.30         1.9752
   411.44         1.9781
   411.58         1.9815
   411.72         1.9862
   411.86         1.9920
   412.00         1.9980
   412.14         2.0024
   412.28         2.0039
   412.42         2.0017
   412.56         1.9961
   412.70         1.9882
   412.84         1.9796
   412.98         1.9709
   413.12         1.9621
   413.26         1.9530
   413.40         1.9440
   413.54         1.9358
   413.68         1.9296
   413.82         1.9256
   413.96         1.9238
   414.10         1.9235
   414.24         1.9242
   414.38         1.9259
   414.52         1.9291
   414.66         1.9349
   414.80         1.9455
   414.94         1.9627
   415.08         1.9871
   415.22         2.0178
   415.36         2.0521
   415.50         2.0869
   415.64         2.1188
   415.78         2.1453
   415.92         2.1649
   416.06         2.1761
   416.20         2.1777
   416.34         2.1690
   416.48         2.1506
   416.62         2.1244
   416.76         2.0933
   416.90         2.0609
   417.04         2.0307
   417.18         2.0063
   417.32         1.9910
   417.46         1.9865
   417.60         1.9925
   417.74         2.0068
   417.88         2.0266
   418.02         2.0493
   418.16         2.0731
   418.30         2.0961
   418.44         2.1160
   418.58         2.1302
   418.72         2.1369
   418.86         2.1353
   419.00         2.1256
   419.14         2.1089
   419.28         2.0869
   419.42         2.0621
   419.56         2.0379
   419.70         2.0176
   419.84         2.0041
   419.98         1.9990
   420.12         2.0016
   420.26         2.0104
   420.40         2.0233
   420.54         2.0387
   420.68         2.0547
   420.82         2.0690
   420.96         2.0786
   421.10         2.0799
   421.24         2.0696
   421.38         2.0454
   421.52         2.0062
   421.66         1.9536
   421.80         1.8911
   421.94         1.8238
   422.08         1.7571
   422.22         1.6962
   422.36         1.6450
   422.50         1.6067
   422.64         1.5837
   422.78         1.5780
   422.92         1.5911
   423.06         1.6239
   423.20         1.6760
   423.34         1.7447
   423.48         1.8249
   423.62         1.9098
   423.76         1.9924
   423.90         2.0666
   424.04         2.1278
   424.18         2.1736
   424.32         2.2030
   424.46         2.2164
   424.60         2.2148
   424.74         2.1998
   424.88         2.1739
   425.02         2.1410
   425.16         2.1060
   425.30         2.0742
   425.44         2.0502
   425.58         2.0372
   425.72         2.0361
   425.86         2.0453
   426.00         2.0608
   426.14         2.0774
   426.28         2.0903
   426.42         2.0960
   426.56         2.0932
   426.70         2.0827
   426.84         2.0666
   426.98         2.0477
   427.12         2.0292
   427.26         2.0137
   427.40         2.0033
   427.54         1.9993
   427.68         2.0011
   427.82         2.0070
   427.96         2.0141
   428.10         2.0197
   428.24         2.0224
   428.38         2.0213
   428.52         2.0161
   428.66         2.0071
   428.80         1.9948
   428.94         1.9801
   429.08         1.9644
   429.22         1.9493
   429.36         1.9355
   429.50         1.9222
   429.64         1.9078
   429.78         1.8911
   429.92         1.8725
   430.06         1.8538
   430.20         1.8376
   430.34         1.8279
   430.48         1.8293
   430.62         1.8466
   430.76         1.8826
   430.90         1.9370
   431.04         2.0058
   431.18         2.0830
   431.32         2.1614
   431.46         2.2346
   431.60         2.2986
   431.74         2.3519
   431.88         2.3946
   432.02         2.4279
   432.16         2.4539
   432.30         2.4766
   432.44         2.4997
   432.58         2.5253
   432.72         2.5526
   432.86         2.5791
   433.00         2.6020
   433.14         2.6193
   433.28         2.6293
   433.42         2.6309
   433.56         2.6241
   433.70         2.6104
   433.84         2.5922
   433.98         2.5728
   434.12         2.5548
   434.26         2.5409
   434.40         2.5334
   434.54         2.5335
   434.68         2.5405
   434.82         2.5525
   434.96         2.5670
   435.10         2.5812
   435.24         2.5936
   435.38         2.6049
   435.52         2.6168
   435.66         2.6314
   435.80         2.6497
   435.94         2.6717
   436.08         2.6957
   436.22         2.7194
   436.36         2.7397
   436.50         2.7541
   436.64         2.7613
   436.78         2.7615
   436.92         2.7561
   437.06         2.7453
   437.20         2.7280
   437.34         2.7034
   437.48         2.6724
   437.62         2.6377
   437.76         2.6021
   437.90         2.5682
   438.04         2.5382
   438.18         2.5142
   438.32         2.4977
   438.46         2.4895
   438.60         2.4901
   438.74         2.4991
   438.88         2.5152
   439.02         2.5364
   439.16         2.5601
   439.30         2.5824
   439.44         2.5985
   439.58         2.6045
   439.72         2.5989
   439.86         2.5843
   440.00         2.5661
   440.14         2.5497
   440.28         2.5387
   440.42         2.5349
   440.56         2.5399
   440.70         2.5554
   440.84         2.5819
   440.98         2.6175
   441.12         2.6589
   441.26         2.7015
   441.40         2.7402
   441.54         2.7704
   441.68         2.7885
   441.82         2.7927
   441.96         2.7830
   442.10         2.7610
   442.24         2.7294
   442.38         2.6912
   442.52         2.6500
   442.66         2.6087
   442.80         2.5698
   442.94         2.5354
   443.08         2.5078
   443.22         2.4894
   443.36         2.4820
   443.50         2.4858
   443.64         2.5001
   443.78         2.5235
   443.92         2.5548
   444.06         2.5922
   444.20         2.6326
   444.34         2.6721
   444.48         2.7069
   444.62         2.7330
   444.76         2.7468
   444.90         2.7460
   445.04         2.7308
   445.18         2.7031
   445.32         2.6654
   445.46         2.6200
   445.60         2.5699
   445.74         2.5191
   445.88         2.4719
   446.02         2.4324
   446.16         2.4037
   446.30         2.3875
   446.44         2.3852
   446.58         2.3968
   446.72         2.4208
   446.86         2.4544
   447.00         2.4945
   447.14         2.5379
   447.28         2.5818
   447.42         2.6242
   447.56         2.6630
   447.70         2.6967
   447.84         2.7239
   447.98         2.7447
   448.12         2.7598
   448.26         2.7702
   448.40         2.7770
   448.54         2.7821
   448.68         2.7876
   448.82         2.7953
   448.96         2.8063
   449.10         2.8212
   449.24         2.8393
   449.38         2.8582
   449.52         2.8754
   449.66         2.8899
   449.80         2.9010
   449.94         2.9082
   450.08         2.9103
   450.22         2.9067
   450.36         2.8985
   450.50         2.8877
   450.64         2.8766
   450.78         2.8664
   450.92         2.8585
   451.06         2.8542
   451.20         2.8544
   451.34         2.8584
   451.48         2.8642
   451.62         2.8689
   451.76         2.8700
   451.90         2.8652
   452.04         2.8526
   452.18         2.8314
   452.32         2.8027
   452.46         2.7696
   452.60         2.7363
   452.74         2.7077
   452.88         2.6881
   453.02         2.6806
   453.16         2.6862
   453.30         2.7044
   453.44         2.7329
   453.58         2.7680
   453.72         2.8049
   453.86         2.8387
   454.00         2.8654
   454.14         2.8822
   454.28         2.8887
   454.42         2.8872
   454.56         2.8810
   454.70         2.8741
   454.84         2.8717
   454.98         2.8784
   455.12         2.8974
   455.26         2.9297
   455.40         2.9746
   455.54         3.0299
   455.68         3.0925
   455.82         3.1580
   455.96         3.2219
   456.10         3.2804
   456.24         3.3309
   456.38         3.3720
   456.52         3.4031
   456.66         3.4240
   456.80         3.4352
   456.94         3.4377
   457.08         3.4314
   457.22         3.4142
   457.36         3.3833
   457.50         3.3375
   457.64         3.2764
   457.78         3.2018
   457.92         3.1170
   458.06         3.0254
   458.20         2.9302
   458.34         2.8355
   458.48         2.7456
   458.62         2.6650
   458.76         2.5978
   458.90         2.5470
   459.04         2.5139
   459.18         2.4980
   459.32         2.4977
   459.46         2.5109
   459.60         2.5354
   459.74         2.5690
   459.88         2.6097
   460.02         2.6565
   460.16         2.7093
   460.30         2.7682
   460.44         2.8324
   460.58         2.9001
   460.72         2.9689
   460.86         3.0363
   461.00         3.0993
   461.14         3.1544
   461.28         3.1977
   461.42         3.2258
   461.56         3.2358
   461.70         3.2255
   461.84         3.1945
   461.98         3.1446
   462.12         3.0792
   462.26         3.0026
   462.40         2.9187
   462.54         2.8311
   462.68         2.7439
   462.82         2.6615
   462.96         2.5879
   463.10         2.5255
   463.24         2.4755
   463.38         2.4385
   463.52         2.4143
   463.66         2.4022
   463.80         2.4031
   463.94         2.4185
   464.08         2.4477
   464.22         2.4886
   464.36         2.5393
   464.50         2.5978
   464.64         2.6615
   464.78         2.7270
   464.92         2.7913
   465.06         2.8517
   465.20         2.9060
   465.34         2.9515
   465.48         2.9861
   465.62         3.0075
   465.76         3.0142
   465.90         3.0052
   466.04         2.9816
   466.18         2.9462
   466.32         2.9029
   466.46         2.8557
   466.60         2.8069
   466.74         2.7570
   466.88         2.7084
   467.02         2.6651
   467.16         2.6305
   467.30         2.6069
   467.44         2.5958
   467.58         2.5976
   467.72         2.6115
   467.86         2.6358
   468.00         2.6683
   468.14         2.7077
   468.28         2.7532
   468.42         2.8040
   468.56         2.8586
   468.70         2.9150
   468.84         2.9713
   468.98         3.0262
   469.12         3.0783
   469.26         3.1261
   469.40         3.1675
   469.54         3.2012
   469.68         3.2269
   469.82         3.2447
   469.96         3.2554
   470.10         3.2594
   470.24         3.2571
   470.38         3.2484
   470.52         3.2336
   470.66         3.2139
   470.80         3.1914
   470.94         3.1679
   471.08         3.1449
   471.22         3.1235
   471.36         3.1050
   471.50         3.0909
   471.64         3.0821
   471.78         3.0788
   471.92         3.0806
   472.06         3.0871
   472.20         3.0986
   472.34         3.1156
   472.48         3.1379
   472.62         3.1638
   472.76         3.1908
   472.90         3.2168
   473.04         3.2410
   473.18         3.2637
   473.32         3.2859
   473.46         3.3089
   473.60         3.3342
   473.74         3.3629
   473.88         3.3963
   474.02         3.4357
   474.16         3.4817
   474.30         3.5342
   474.44         3.5916
   474.58         3.6501
   474.72         3.7043
   474.86         3.7472
   475.00         3.7705
   475.14         3.7661
   475.28         3.7282
   475.42         3.6543
   475.56         3.5452
   475.70         3.4053
   475.84         3.2426
   475.98         3.0668
   476.12         2.8884
   476.26         2.7178
   476.40         2.5651
   476.54         2.4387
   476.68         2.3441
   476.82         2.2829
   476.96         2.2530
   477.10         2.2494
   477.24         2.2651
   477.38         2.2927
   477.52         2.3258
   477.66         2.3600
   477.80         2.3936
   477.94         2.4266
   478.08         2.4596
   478.22         2.4939
   478.36         2.5304
   478.50         2.5694
   478.64         2.6106
   478.78         2.6529
   478.92         2.6957
   479.06         2.7386
   479.20         2.7803
   479.34         2.8178
   479.48         2.8475
   479.62         2.8664
   479.76         2.8723
   479.90         2.8640
   480.04         2.8417
   480.18         2.8067
   480.32         2.7612
   480.46         2.7078
   480.60         2.6503
   480.74         2.5934
   480.88         2.5422
   481.02         2.5020
   481.16         2.4768
   481.30         2.4692
   481.44         2.4799
   481.58         2.5082
   481.72         2.5506
   481.86         2.6013
   482.00         2.6543
   482.14         2.7053
   482.28         2.7523
   482.42         2.7950
   482.56         2.8342
   482.70         2.8714
   482.84         2.9076
   482.98         2.9435
   483.12         2.9795
   483.26         3.0155
   483.40         3.0497
   483.54         3.0795
   483.68         3.1009
   483.82         3.1100
   483.96         3.1044
   484.10         3.0837
   484.24         3.0492
   484.38         3.0040
   484.52         2.9520
   484.66         2.8983
   484.80         2.8473
   484.94         2.8024
   485.08         2.7664
   485.22         2.7411
   485.36         2.7272
   485.50         2.7253
   485.64         2.7352
   485.78         2.7563
   485.92         2.7879
   486.06         2.8287
   486.20         2.8775
   486.34         2.9330
   486.48         2.9937
   486.62         3.0579
   486.76         3.1236
   486.90         3.1889
   487.04         3.2522
   487.18         3.3119
   487.32         3.3670
   487.46         3.4175
   487.60         3.4650
   487.74         3.5114
   487.88         3.5581
   488.02         3.6065
   488.16         3.6577
   488.30         3.7123
   488.44         3.7701
   488.58         3.8307
   488.72         3.8930
   488.86         3.9553
   489.00         4.0157
   489.14         4.0734
   489.28         4.1290
   489.42         4.1841
   489.56         4.2402
   489.70         4.2980
   489.84         4.3582
   489.98         4.4218
   490.12         4.4901
   490.26         4.5637
   490.40         4.6425
   490.54         4.7250
   490.68         4.8088
   490.82         4.8902
   490.96         4.9657
   491.10         5.0329
   491.24         5.0917
   491.38         5.1439
   491.52         5.1930
   491.66         5.2444
   491.80         5.3037
   491.94         5.3757
   492.08         5.4622
   492.22         5.5622
   492.36         5.6736
   492.50         5.7927
   492.64         5.9149
   492.78         6.0346
   492.92         6.1460
   493.06         6.2448
   493.20         6.3288
   493.34         6.3987
   493.48         6.4573
   493.62         6.5095
   493.76         6.5610
   493.90         6.6170
   494.04         6.6785
   494.18         6.7381
   494.32         6.7792
   494.46         6.7800
   494.60         6.7181
   494.74         6.5758
   494.88         6.3435
   495.02         6.0205
   495.16         5.6154
   495.30         5.1453
   495.44         4.6340
   495.58         4.1102
   495.72         3.6042
   495.86         3.1444
   496.00         2.7535
   496.14         2.4464
   496.28         2.2292
   496.42         2.0994
   496.56         2.0455
   496.70         2.0488
   496.84         2.0871
   496.98         2.1412
   497.12         2.1981
   497.26         2.2513
   497.40         2.2989
   497.54         2.3418
   497.68         2.3818
   497.82         2.4211
   497.96         2.4617
   498.10         2.5054
   498.24         2.5531
   498.38         2.6050
   498.52         2.6597
   498.66         2.7143
   498.80         2.7642
   498.94         2.8046
   499.08         2.8309
   499.22         2.8394
   499.36         2.8273
   499.50         2.7943
   499.64         2.7424
   499.78         2.6761
   499.92         2.6015
   500.06         2.5242
   500.20         2.4491
   500.34         2.3805
   500.48         2.3228
   500.62         2.2798
   500.76         2.2541
   500.90         2.2465
   501.04         2.2560
   501.18         2.2797
   501.32         2.3141
   501.46         2.3559
   501.60         2.4034
   501.74         2.4559
   501.88         2.5133
   502.02         2.5757
   502.16         2.6436
   502.30         2.7168
   502.44         2.7946
   502.58         2.8753
   502.72         2.9573
   502.86         3.0388
   503.00         3.1189
   503.14         3.1973
   503.28         3.2749
   503.42         3.3529
   503.56         3.4323
   503.70         3.5132
   503.84         3.5947
   503.98         3.6749
   504.12         3.7519
   504.26         3.8238
   504.40         3.8892
   504.54         3.9480
   504.68         4.0011
   504.82         4.0503
   504.96         4.0971
   505.10         4.1433
   505.24         4.1902
   505.38         4.2382
   505.52         4.2875
   505.66         4.3392
   505.80         4.3947
   505.94         4.4543
   506.08         4.5164
   506.22         4.5788
   506.36         4.6398
   506.50         4.6986
   506.64         4.7556
   506.78         4.8111
   506.92         4.8648
   507.06         4.9160
   507.20         4.9643
   507.34         5.0092
   507.48         5.0506
   507.62         5.0888
   507.76         5.1242
   507.90         5.1578
   508.04         5.1916
   508.18         5.2292
   508.32         5.2739
   508.46         5.3268
   508.60         5.3866
   508.74         5.4510
   508.88         5.5172
   509.02         5.5829
   509.16         5.6451
   509.30         5.7013
   509.44         5.7492
   509.58         5.7880
   509.72         5.8183
   509.86         5.8418
   510.00         5.8609
   510.14         5.8783
   510.28         5.8976
   510.42         5.9230
   510.56         5.9594
   510.70         6.0104
   510.84         6.0767
   510.98         6.1560
   511.12         6.2443
   511.26         6.3363
   511.40         6.4272
   511.54         6.5117
   511.68         6.5854
   511.82         6.6458
   511.96         6.6930
   512.10         6.7294
   512.24         6.7588
   512.38         6.7863
   512.52         6.8162
   512.66         6.8512
   512.80         6.8922
   512.94         6.9392
   513.08         6.9896
   513.22         7.0380
   513.36         7.0778
   513.50         7.1031
   513.64         7.1106
   513.78         7.0992
   513.92         7.0694
   514.06         7.0238
   514.20         6.9676
   514.34         6.9099
   514.48         6.8622
   514.62         6.8350
   514.76         6.8357
   514.90         6.8682
   515.04         6.9331
   515.18         7.0249
   515.32         7.1304
   515.46         7.2279
   515.60         7.2897
   515.74         7.2865
   515.88         7.1941
   516.02         6.9976
   516.16         6.6926
   516.30         6.2857
   516.44         5.7936
   516.58         5.2422
   516.72         4.6640
   516.86         4.0953
   517.00         3.5702
   517.14         3.1161
   517.28         2.7516
   517.42         2.4856
   517.56         2.3174
   517.70         2.2368
   517.84         2.2261
   517.98         2.2631
   518.12         2.3277
   518.26         2.4056
   518.40         2.4899
   518.54         2.5785
   518.68         2.6709
   518.82         2.7663
   518.96         2.8629
   519.10         2.9578
   519.24         3.0462
   519.38         3.1236
   519.52         3.1860
   519.66         3.2314
   519.80         3.2598
   519.94         3.2736
   520.08         3.2774
   520.22         3.2768
   520.36         3.2776
   520.50         3.2857
   520.64         3.3063
   520.78         3.3437
   520.92         3.4007
   521.06         3.4775
   521.20         3.5707
   521.34         3.6741
   521.48         3.7808
   521.62         3.8859
   521.76         3.9873
   521.90         4.0854
   522.04         4.1826
   522.18         4.2820
   522.32         4.3859
   522.46         4.4956
   522.60         4.6099
   522.74         4.7246
   522.88         4.8325
   523.02         4.9260
   523.16         4.9983
   523.30         5.0439
   523.44         5.0581
   523.58         5.0391
   523.72         4.9878
   523.86         4.9093
   524.00         4.8127
   524.14         4.7104
   524.28         4.6149
   524.42         4.5372
   524.56         4.4855
   524.70         4.4649
   524.84         4.4760
   524.98         4.5144
   525.12         4.5727
   525.26         4.6406
   525.40         4.7077
   525.54         4.7650
   525.68         4.8062
   525.82         4.8271
   525.96         4.8275
   526.10         4.8116
   526.24         4.7870
   526.38         4.7632
   526.52         4.7498
   526.66         4.7549
   526.80         4.7837
   526.94         4.8387
   527.08         4.9193
   527.22         5.0227
   527.36         5.1443
   527.50         5.2775
   527.64         5.4159
   527.78         5.5540
   527.92         5.6881
   528.06         5.8161
   528.20         5.9371
   528.34         6.0506
   528.48         6.1554
   528.62         6.2508
   528.76         6.3359
   528.90         6.4105
   529.04         6.4747
   529.18         6.5299
   529.32         6.5780
   529.46         6.6198
   529.60         6.6553
   529.74         6.6837
   529.88         6.7034
   530.02         6.7123
   530.16         6.7084
   530.30         6.6909
   530.44         6.6609
   530.58         6.6201
   530.72         6.5710
   530.86         6.5162
   531.00         6.4586
   531.14         6.4021
   531.28         6.3511
   531.42         6.3086
   531.56         6.2743
   531.70         6.2458
   531.84         6.2205
   531.98         6.1961
   532.12         6.1708
   532.26         6.1450
   532.40         6.1211
   532.54         6.1022
   532.68         6.0916
   532.82         6.0917
   532.96         6.1037
   533.10         6.1277
   533.24         6.1631
   533.38         6.2080
   533.52         6.2604
   533.66         6.3180
   533.80         6.3791
   533.94         6.4436
   534.08         6.5128
   534.22         6.5887
   534.36         6.6732
   534.50         6.7657
   534.64         6.8615
   534.78         6.9529
   534.92         7.0314
   535.06         7.0888
   535.20         7.1184
   535.34         7.1163
   535.48         7.0822
   535.62         7.0189
   535.76         6.9317
   535.90         6.8271
   536.04         6.7134
   536.18         6.6007
   536.32         6.4998
   536.46         6.4204
   536.60         6.3697
   536.74         6.3513
   536.88         6.3646
   537.02         6.4056
   537.16         6.4685
   537.30         6.5471
   537.44         6.6357
   537.58         6.7288
   537.72         6.8198
   537.86         6.9023
   538.00         6.9709
   538.14         7.0215
   538.28         7.0509
   538.42         7.0580
   538.56         7.0453
   538.70         7.0194
   538.84         6.9895
   538.98         6.9637
   539.12         6.9480
   539.26         6.9448
   539.40         6.9535
   539.54         6.9702
   539.68         6.9901
   539.82         7.0085
   539.96         7.0221
   540.10         7.0296
   540.24         7.0312
   540.38         7.0291
   540.52         7.0273
   540.66         7.0313
   540.80         7.0461
   540.94         7.0756
   541.08         7.1226
   541.22         7.1882
   541.36         7.2705
   541.50         7.3635
   541.64         7.4579
   541.78         7.5428
   541.92         7.6087
   542.06         7.6483
   542.20         7.6586
   542.34         7.6408
   542.48         7.6012
   542.62         7.5495
   542.76         7.4976
   542.90         7.4578
   543.04         7.4411
   543.18         7.4539
   543.32         7.4948
   543.46         7.5529
   543.60         7.6094
   543.74         7.6410
   543.88         7.6249
   544.02         7.5423
   544.16         7.3804
   544.30         7.1343
   544.44         6.8082
   544.58         6.4153
   544.72         5.9769
   544.86         5.5199
   545.00         5.0746
   545.14         4.6702
   545.28         4.3310
   545.42         4.0725
   545.56         3.9007
   545.70         3.8111
   545.84         3.7905
   545.98         3.8208
   546.12         3.8827
   546.26         3.9600
   546.40         4.0421
   546.54         4.1225
   546.68         4.1980
   546.82         4.2668
   546.96         4.3293
   547.10         4.3874
   547.24         4.4441
   547.38         4.5025
   547.52         4.5652
   547.66         4.6333
   547.80         4.7060
   547.94         4.7809
   548.08         4.8554
   548.22         4.9272
   548.36         4.9938
   548.50         5.0515
   548.64         5.0956
   548.78         5.1216
   548.92         5.1261
   549.06         5.1080
   549.20         5.0679
   549.34         5.0086
   549.48         4.9342
   549.62         4.8505
   549.76         4.7641
   549.90         4.6813
   550.04         4.6074
   550.18         4.5467
   550.32         4.5025
   550.46         4.4783
   550.60         4.4767
   550.74         4.4997
   550.88         4.5466
   551.02         4.6141
   551.16         4.6966
   551.30         4.7884
   551.44         4.8839
   551.58         4.9785
   551.72         5.0679
   551.86         5.1487
   552.00         5.2181
   552.14         5.2747
   552.28         5.3186
   552.42         5.3519
   552.56         5.3778
   552.70         5.4000
   552.84         5.4230
   552.98         5.4514
   553.12         5.4891
   553.26         5.5379
   553.40         5.5971
   553.54         5.6638
   553.68         5.7343
   553.82         5.8050
   553.96         5.8722
   554.10         5.9327
   554.24         5.9841
   554.38         6.0246
   554.52         6.0531
   554.66         6.0692
   554.80         6.0731
   554.94         6.0661
   555.08         6.0501
   555.22         6.0276
   555.36         6.0008
   555.50         5.9720
   555.64         5.9430
   555.78         5.9148
   555.92         5.8876
   556.06         5.8611
   556.20         5.8348
   556.34         5.8079
   556.48         5.7801
   556.62         5.7513
   556.76         5.7223
   556.90         5.6945
   557.04         5.6693
   557.18         5.6477
   557.32         5.6307
   557.46         5.6192
   557.60         5.6137
   557.74         5.6140
   557.88         5.6194
   558.02         5.6277
   558.16         5.6358
   558.30         5.6406
   558.44         5.6391
   558.58         5.6277
   558.72         5.6022
   558.86         5.5594
   559.00         5.4983
   559.14         5.4202
   559.28         5.3273
   559.42         5.2226
   559.56         5.1095
   559.70         4.9924
   559.84         4.8766
   559.98         4.7683
   560.12         4.6728
   560.26         4.5943
   560.40         4.5344
   560.54         4.4926
   560.68         4.4661
   560.82         4.4509
   560.96         4.4425
   561.10         4.4365
   561.24         4.4288
   561.38         4.4174
   561.52         4.4025
   561.66         4.3853
   561.80         4.3668
   561.94         4.3474
   562.08         4.3275
   562.22         4.3088
   562.36         4.2933
   562.50         4.2823
   562.64         4.2765
   562.78         4.2755
   562.92         4.2778
   563.06         4.2818
   563.20         4.2868
   563.34         4.2930
   563.48         4.3017
   563.62         4.3144
   563.76         4.3329
   563.90         4.3586
   564.04         4.3925
   564.18         4.4357
   564.32         4.4881
   564.46         4.5490
   564.60         4.6172
   564.74         4.6907
   564.88         4.7668
   565.02         4.8417
   565.16         4.9109
   565.30         4.9701
   565.44         5.0155
   565.58         5.0450
   565.72         5.0577
   565.86         5.0536
   566.00         5.0340
   566.14         5.0015
   566.28         4.9601
   566.42         4.9148
   566.56         4.8709
   566.70         4.8333
   566.84         4.8060
   566.98         4.7921
   567.12         4.7941
   567.26         4.8133
   567.40         4.8497
   567.54         4.9015
   567.68         4.9656
   567.82         5.0386
   567.96         5.1169
   568.10         5.1972
   568.24         5.2760
   568.38         5.3498
   568.52         5.4161
   568.66         5.4737
   568.80         5.5223
   568.94         5.5623
   569.08         5.5942
   569.22         5.6193
   569.36         5.6402
   569.50         5.6602
   569.64         5.6824
   569.78         5.7090
   569.92         5.7408
   570.06         5.7777
   570.20         5.8188
   570.34         5.8629
   570.48         5.9084
   570.62         5.9524
   570.76         5.9909
   570.90         6.0203
   571.04         6.0386
   571.18         6.0459
   571.32         6.0436
   571.46         6.0337
   571.60         6.0187
   571.74         6.0016
   571.88         5.9864
   572.02         5.9775
   572.16         5.9782
   572.30         5.9901
   572.44         6.0135
   572.58         6.0470
   572.72         6.0885
   572.86         6.1350
   573.00         6.1840
   573.14         6.2335
   573.28         6.2822
   573.42         6.3300
   573.56         6.3786
   573.70         6.4302
   573.84         6.4869
   573.98         6.5496
   574.12         6.6185
   574.26         6.6937
   574.40         6.7748
   574.54         6.8598
   574.68         6.9441
   574.82         7.0202
   574.96         7.0788
   575.10         7.1107
   575.24         7.1095
   575.38         7.0721
   575.52         6.9993
   575.66         6.8950
   575.80         6.7661
   575.94         6.6219
   576.08         6.4732
   576.22         6.3313
   576.36         6.2062
   576.50         6.1055
   576.64         6.0339
   576.78         5.9934
   576.92         5.9831
   577.06         5.9994
   577.20         6.0367
   577.34         6.0882
   577.48         6.1471
   577.62         6.2081
   577.76         6.2681
   577.90         6.3257
   578.04         6.3813
   578.18         6.4367
   578.32         6.4955
   578.46         6.5617
   578.60         6.6383
   578.74         6.7268
   578.88         6.8277
   579.02         6.9398
   579.16         7.0610
   579.30         7.1888
   579.44         7.3191
   579.58         7.4470
   579.72         7.5662
   579.86         7.6685
   580.00         7.7446
   580.14         7.7857
   580.28         7.7855
   580.42         7.7409
   580.56         7.6522
   580.70         7.5232
   580.84         7.3604
   580.98         7.1726
   581.12         6.9699
   581.26         6.7631
   581.40         6.5641
   581.54         6.3844
   581.68         6.2334
   581.82         6.1178
   581.96         6.0408
   582.10         6.0025
   582.24         6.0001
   582.38         6.0278
   582.52         6.0776
   582.66         6.1406
   582.80         6.2084
   582.94         6.2745
   583.08         6.3338
   583.22         6.3825
   583.36         6.4169
   583.50         6.4331
   583.64         6.4264
   583.78         6.3924
   583.92         6.3281
   584.06         6.2327
   584.20         6.1080
   584.34         5.9579
   584.48         5.7887
   584.62         5.6088
   584.76         5.4267
   584.90         5.2502
   585.04         5.0849
   585.18         4.9351
   585.32         4.8044
   585.46         4.6958
   585.60         4.6111
   585.74         4.5491
   585.88         4.5057
   586.02         4.4742
   586.16         4.4474
   586.30         4.4198
   586.44         4.3883
   586.58         4.3519
   586.72         4.3116
   586.86         4.2691
   587.00         4.2267
   587.14         4.1861
   587.28         4.1491
   587.42         4.1161
   587.56         4.0867
   587.70         4.0595
   587.84         4.0339
   587.98         4.0101
   588.12         3.9886
   588.26         3.9689
   588.40         3.9488
   588.54         3.9262
   588.68         3.8991
   588.82         3.8673
   588.96         3.8322
   589.10         3.7958
   589.24         3.7598
   589.38         3.7256
   589.52         3.6942
   589.66         3.6660
   589.80         3.6412
   589.94         3.6196
   590.08         3.6011
   590.22         3.5862
   590.36         3.5764
   590.50         3.5740
   590.64         3.5803
   590.78         3.5942
   590.92         3.6135
   591.06         3.6364
   591.20         3.6614
   591.34         3.6876
   591.48         3.7143
   591.62         3.7404
   591.76         3.7649
   591.90         3.7868
   592.04         3.8060
   592.18         3.8234
   592.32         3.8408
   592.46         3.8603
   592.60         3.8840
   592.74         3.9135
   592.88         3.9494
   593.02         3.9911
   593.16         4.0368
   593.30         4.0846
   593.44         4.1318
   593.58         4.1760
   593.72         4.2145
   593.86         4.2453
   594.00         4.2675
   594.14         4.2809
   594.28         4.2859
   594.42         4.2827
   594.56         4.2726
   594.70         4.2575
   594.84         4.2405
   594.98         4.2247
   595.12         4.2128
   595.26         4.2063
   595.40         4.2061
   595.54         4.2130
   595.68         4.2273
   595.82         4.2493
   595.96         4.2788
   596.10         4.3147
   596.24         4.3562
   596.38         4.4019
   596.52         4.4502
   596.66         4.4987
   596.80         4.5452
   596.94         4.5884
   597.08         4.6283
   597.22         4.6658
   597.36         4.7023
   597.50         4.7396
   597.64         4.7790
   597.78         4.8213
   597.92         4.8678
   598.06         4.9205
   598.20         4.9815
   598.34         5.0514
   598.48         5.1293
   598.62         5.2125
   598.76         5.2965
   598.90         5.3764
   599.04         5.4477
   599.18         5.5070
   599.32         5.5519
   599.46         5.5817
   599.60         5.5969
   599.74         5.5985
   599.88         5.5890
   600.02         5.5721
   600.16         5.5521
   600.30         5.5336
   600.44         5.5210
   600.58         5.5182
   600.72         5.5277
   600.86         5.5494
   601.00         5.5820
   601.14         5.6234
   601.28         5.6716
   601.42         5.7246
   601.56         5.7813
   601.70         5.8402
   601.84         5.9000
   601.98         5.9591
   602.12         6.0165
   602.26         6.0710
   602.40         6.1206
   602.54         6.1632
   602.68         6.1979
   602.82         6.2251
   602.96         6.2458
   603.10         6.2623
   603.24         6.2772
   603.38         6.2941
   603.52         6.3163
   603.66         6.3469
   603.80         6.3883
   603.94         6.4419
   604.08         6.5071
   604.22         6.5813
   604.36         6.6603
   604.50         6.7396
   604.64         6.8142
   604.78         6.8797
   604.92         6.9328
   605.06         6.9717
   605.20         6.9957
   605.34         7.0056
   605.48         7.0036
   605.62         6.9937
   605.76         6.9810
   605.90         6.9705
   606.04         6.9663
   606.18         6.9714
   606.32         6.9873
   606.46         7.0143
   606.60         7.0502
   606.74         7.0909
   606.88         7.1317
   607.02         7.1689
   607.16         7.1994
   607.30         7.2213
   607.44         7.2348
   607.58         7.2412
   607.72         7.2420
   607.86         7.2400
   608.00         7.2394
   608.14         7.2459
   608.28         7.2637
   608.42         7.2950
   608.56         7.3408
   608.70         7.4009
   608.84         7.4731
   608.98         7.5526
   609.12         7.6325
   609.26         7.7069
   609.40         7.7720
   609.54         7.8266
   609.68         7.8713
   609.82         7.9068
   609.96         7.9343
   610.10         7.9557
   610.24         7.9729
   610.38         7.9877
   610.52         8.0020
   610.66         8.0173
   610.80         8.0335
   610.94         8.0495
   611.08         8.0640
   611.22         8.0769
   611.36         8.0892
   611.50         8.1019
   611.64         8.1170
   611.78         8.1388
   611.92         8.1727
   612.06         8.2215
   612.20         8.2845
   612.34         8.3565
   612.48         8.4310
   612.62         8.5036
   612.76         8.5726
   612.90         8.6372
   613.04         8.6968
   613.18         8.7517
   613.32         8.8042
   613.46         8.8573
   613.60         8.9129
   613.74         8.9684
   613.88         9.0164
   614.02         9.0475
   614.16         9.0518
   614.30         9.0204
   614.44         8.9460
   614.58         8.8228
   614.72         8.6468
   614.86         8.4162
   615.00         8.1334
   615.14         7.8061
   615.28         7.4466
   615.42         7.0684
   615.56         6.6845
   615.70         6.3075
   615.84         5.9490
   615.98         5.6190
   616.12         5.3240
   616.26         5.0667
   616.40         4.8473
   616.54         4.6667
   616.68         4.5264
   616.82         4.4260
   616.96         4.3611
   617.10         4.3259
   617.24         4.3122
   617.38         4.3107
   617.52         4.3124
   617.66         4.3109
   617.80         4.3029
   617.94         4.2873
   618.08         4.2629
   618.22         4.2293
   618.36         4.1869
   618.50         4.1378
   618.64         4.0852
   618.78         4.0326
   618.92         3.9832
   619.06         3.9400
   619.20         3.9063
   619.34         3.8850
   619.48         3.8780
   619.62         3.8860
   619.76         3.9081
   619.90         3.9421
   620.04         3.9842
   620.18         4.0304
   620.32         4.0766
   620.46         4.1183
   620.60         4.1507
   620.74         4.1698
   620.88         4.1741
   621.02         4.1645
   621.16         4.1425
   621.30         4.1096
   621.44         4.0668
   621.58         4.0161
   621.72         3.9602
   621.86         3.9025
   622.00         3.8466
   622.14         3.7959
   622.28         3.7529
   622.42         3.7191
   622.56         3.6951
   622.70         3.6815
   622.84         3.6783
   622.98         3.6850
   623.12         3.7007
   623.26         3.7244
   623.40         3.7547
   623.54         3.7899
   623.68         3.8280
   623.82         3.8668
   623.96         3.9050
   624.10         3.9421
   624.24         3.9786
   624.38         4.0157
   624.52         4.0549
   624.66         4.0972
   624.80         4.1433
   624.94         4.1936
   625.08         4.2482
   625.22         4.3068
   625.36         4.3691
   625.50         4.4333
   625.64         4.4971
   625.78         4.5577
   625.92         4.6125
   626.06         4.6606
   626.20         4.7025
   626.34         4.7399
   626.48         4.7741
   626.62         4.8053
   626.76         4.8331
   626.90         4.8564
   627.04         4.8749
   627.18         4.8886
   627.32         4.8987
   627.46         4.9074
   627.60         4.9168
   627.74         4.9288
   627.88         4.9456
   628.02         4.9691
   628.16         5.0003
   628.30         5.0395
   628.44         5.0865
   628.58         5.1405
   628.72         5.2002
   628.86         5.2638
   629.00         5.3289
   629.14         5.3932
   629.28         5.4543
   629.42         5.5107
   629.56         5.5630
   629.70         5.6139
   629.84         5.6670
   629.98         5.7252
   630.12         5.7899
   630.26         5.8621
   630.40         5.9429
   630.54         6.0327
   630.68         6.1313
   630.82         6.2373
   630.96         6.3479
   631.10         6.4588
   631.24         6.5650
   631.38         6.6620
   631.52         6.7468
   631.66         6.8182
   631.80         6.8768
   631.94         6.9243
   632.08         6.9625
   632.22         6.9942
   632.36         7.0220
   632.50         7.0482
   632.64         7.0753
   632.78         7.1069
   632.92         7.1473
   633.06         7.1999
   633.20         7.2660
   633.34         7.3447
   633.48         7.4322
   633.62         7.5237
   633.76         7.6142
   633.90         7.7006
   634.04         7.7811
   634.18         7.8536
   634.32         7.9148
   634.46         7.9607
   634.60         7.9870
   634.74         7.9902
   634.88         7.9701
   635.02         7.9294
   635.16         7.8731
   635.30         7.8078
   635.44         7.7408
   635.58         7.6795
   635.72         7.6303
   635.86         7.5989
   636.00         7.5896
   636.14         7.6056
   636.28         7.6478
   636.42         7.7157
   636.56         7.8066
   636.70         7.9151
   636.84         8.0335
   636.98         8.1542
   637.12         8.2713
   637.26         8.3797
   637.40         8.4745
   637.54         8.5525
   637.68         8.6124
   637.82         8.6550
   637.96         8.6830
   638.10         8.7000
   638.24         8.7107
   638.38         8.7194
   638.52         8.7305
   638.66         8.7481
   638.80         8.7756
   638.94         8.8154
   639.08         8.8698
   639.22         8.9403
   639.36         9.0275
   639.50         9.1309
   639.64         9.2494
   639.78         9.3798
   639.92         9.5171
   640.06         9.6556
   640.20         9.7893
   640.34         9.9104
   640.48         10.0104
   640.62         10.0815
   640.76         10.1182
   640.90         10.1170
   641.04         10.0765
   641.18         9.9981
   641.32         9.8865
   641.46         9.7494
   641.60         9.5979
   641.74         9.4454
   641.88         9.3041
   642.02         9.1839
   642.16         9.0925
   642.30         9.0353
   642.44         9.0148
   642.58         9.0309
   642.72         9.0799
   642.86         9.1546
   643.00         9.2479
   643.14         9.3554
   643.28         9.4740
   643.42         9.5996
   643.56         9.7265
   643.70         9.8471
   643.84         9.9546
   643.98         10.0437
   644.12         10.1119
   644.26         10.1589
   644.40         10.1856
   644.54         10.1943
   644.68         10.1902
   644.82         10.1812
   644.96         10.1751
   645.10         10.1769
   645.24         10.1895
   645.38         10.2161
   645.52         10.2609
   645.66         10.3278
   645.80         10.4181
   645.94         10.5298
   646.08         10.6561
   646.22         10.7870
   646.36         10.9117
   646.50         11.0227
   646.64         11.1155
   646.78         11.1860
   646.92         11.2288
   647.06         11.2387
   647.20         11.2117
   647.34         11.1452
   647.48         11.0388
   647.62         10.8959
   647.76         10.7232
   647.90         10.5317
   648.04         10.3356
   648.18         10.1483
   648.32         9.9798
   648.46         9.8359
   648.60         9.7181
   648.74         9.6255
   648.88         9.5579
   649.02         9.5164
   649.16         9.5026
   649.30         9.5160
   649.44         9.5541
   649.58         9.6140
   649.72         9.6921
   649.86         9.7841
   650.00         9.8862
   650.14         9.9942
   650.28         10.1028
   650.42         10.2058
   650.56         10.2976
   650.70         10.3743
   650.84         10.4337
   650.98         10.4756
   651.12         10.5027
   651.26         10.5212
   651.40         10.5389
   651.54         10.5635
   651.68         10.6017
   651.82         10.6585
   651.96         10.7368
   652.10         10.8360
   652.24         10.9528
   652.38         11.0830
   652.52         11.2230
   652.66         11.3690
   652.80         11.5173
   652.94         11.6659
   653.08         11.8127
   653.22         11.9526
   653.36         12.0768
   653.50         12.1751
   653.64         12.2389
   653.78         12.2620
   653.92         12.2404
   654.06         12.1726
   654.20         12.0616
   654.34         11.9139
   654.48         11.7387
   654.62         11.5469
   654.76         11.3515
   654.90         11.1648
   655.04         10.9930
   655.18         10.8350
   655.32         10.6873
   655.46         10.5484
   655.60         10.4174
   655.74         10.2918
   655.88         10.1683
   656.02         10.0472
   656.16         9.9328
   656.30         9.8322
   656.44         9.7515
   656.58         9.6943
   656.72         9.6611
   656.86         9.6504
   657.00         9.6589
   657.14         9.6829
   657.28         9.7181
   657.42         9.7589
   657.56         9.8001
   657.70         9.8387
   657.84         9.8755
   657.98         9.9146
   658.12         9.9579
   658.26         10.0021
   658.40         10.0410
   658.54         10.0691
   658.68         10.0826
   658.82         10.0794
   658.96         10.0583
   659.10         10.0191
   659.24         9.9626
   659.38         9.8926
   659.52         9.8157
   659.66         9.7399
   659.80         9.6720
   659.94         9.6175
   660.08         9.5809
   660.22         9.5641
   660.36         9.5649
   660.50         9.5769
   660.64         9.5923
   660.78         9.6043
   660.92         9.6076
   661.06         9.5991
   661.20         9.5771
   661.34         9.5396
   661.48         9.4854
   661.62         9.4146
   661.76         9.3295
   661.90         9.2340
   662.04         9.1332
   662.18         9.0324
   662.32         8.9357
   662.46         8.8454
   662.60         8.7632
   662.74         8.6894
   662.88         8.6237
   663.02         8.5657
   663.16         8.5157
   663.30         8.4739
   663.44         8.4406
   663.58         8.4155
   663.72         8.3962
   663.86         8.3770
   664.00         8.3499
   664.14         8.3078
   664.28         8.2461
   664.42         8.1624
   664.56         8.0560
   664.70         7.9281
   664.84         7.7825
   664.98         7.6251
   665.12         7.4641
   665.26         7.3108
   665.40         7.1775
   665.54         7.0746
   665.68         7.0089
   665.82         6.9826
   665.96         6.9944
   666.10         7.0398
   666.24         7.1111
   666.38         7.1976
   666.52         7.2877
   666.66         7.3711
   666.80         7.4395
   666.94         7.4854
   667.08         7.5021
   667.22         7.4853
   667.36         7.4346
   667.50         7.3522
   667.64         7.2437
   667.78         7.1177
   667.92         6.9841
   668.06         6.8529
   668.20         6.7326
   668.34         6.6305
   668.48         6.5523
   668.62         6.5010
   668.76         6.4768
   668.90         6.4778
   669.04         6.5014
   669.18         6.5436
   669.32         6.5994
   669.46         6.6631
   669.60         6.7300
   669.74         6.7979
   669.88         6.8661
   670.02         6.9330
   670.16         6.9955
   670.30         7.0480
   670.44         7.0835
   670.58         7.0955
   670.72         7.0792
   670.86         7.0324
   671.00         6.9560
   671.14         6.8539
   671.28         6.7319
   671.42         6.5977
   671.56         6.4598
   671.70         6.3264
   671.84         6.2049
   671.98         6.1017
   672.12         6.0227
   672.26         5.9722
   672.40         5.9516
   672.54         5.9590
   672.68         5.9895
   672.82         6.0375
   672.96         6.0982
   673.10         6.1687
   673.24         6.2466
   673.38         6.3291
   673.52         6.4128
   673.66         6.4934
   673.80         6.5664
   673.94         6.6274
   674.08         6.6741
   674.22         6.7059
   674.36         6.7247
   674.50         6.7340
   674.64         6.7373
   674.78         6.7384
   674.92         6.7403
   675.06         6.7460
   675.20         6.7586
   675.34         6.7812
   675.48         6.8169
   675.62         6.8670
   675.76         6.9313
   675.90         7.0080
   676.04         7.0947
   676.18         7.1890
   676.32         7.2885
   676.46         7.3922
   676.60         7.4998
   676.74         7.6110
   676.88         7.7242
   677.02         7.8341
   677.16         7.9324
   677.30         8.0101
   677.44         8.0599
   677.58         8.0780
   677.72         8.0639
   677.86         8.0202
   678.00         7.9511
   678.14         7.8626
   678.28         7.7618
   678.42         7.6571
   678.56         7.5578
   678.70         7.4729
   678.84         7.4095
   678.98         7.3728
   679.12         7.3658
   679.26         7.3889
   679.40         7.4391
   679.54         7.5099
   679.68         7.5937
   679.82         7.6853
   679.96         7.7820
   680.10         7.8820
   680.24         7.9828
   680.38         8.0802
   680.52         8.1691
   680.66         8.2448
   680.80         8.3047
   680.94         8.3482
   681.08         8.3770
   681.22         8.3943
   681.36         8.4044
   681.50         8.4114
   681.64         8.4199
   681.78         8.4337
   681.92         8.4556
   682.06         8.4872
   682.20         8.5292
   682.34         8.5826
   682.48         8.6478
   682.62         8.7245
   682.76         8.8105
   682.90         8.9031
   683.04         8.9993
   683.18         9.0973
   683.32         9.1969
   683.46         9.2986
   683.60         9.4033
   683.74         9.5106
   683.88         9.6166
   684.02         9.7147
   684.16         9.7971
   684.30         9.8572
   684.44         9.8905
   684.58         9.8956
   684.72         9.8743
   684.86         9.8313
   685.00         9.7732
   685.14         9.7074
   685.28         9.6402
   685.42         9.5778
   685.56         9.5251
   685.70         9.4826
   685.84         9.4456
   685.98         9.4069
   686.12         9.3597
   686.26         9.2987
   686.40         9.2202
   686.54         9.1239
   686.68         9.0151
   686.82         8.9040
   686.96         8.8050
   687.10         8.7342
   687.24         8.7060
   687.38         8.7300
   687.52         8.8095
   687.66         8.9412
   687.80         9.1159
   687.94         9.3201
   688.08         9.5378
   688.22         9.7519
   688.36         9.9468
   688.50         10.1132
   688.64         10.2502
   688.78         10.3623
   688.92         10.4556
   689.06         10.5367
   689.20         10.6137
   689.34         10.6960
   689.48         10.7916
   689.62         10.9063
   689.76         11.0421
   689.90         11.1968
   690.04         11.3658
   690.18         11.5444
   690.32         11.7289
   690.46         11.9160
   690.60         12.1029
   690.74         12.2851
   690.88         12.4545
   691.02         12.6026
   691.16         12.7227
   691.30         12.8101
   691.44         12.8625
   691.58         12.8817
   691.72         12.8742
   691.86         12.8489
   692.00         12.8147
   692.14         12.7798
   692.28         12.7527
   692.42         12.7427
   692.56         12.7581
   692.70         12.8050
   692.84         12.8867
   692.98         13.0027
   693.12         13.1492
   693.26         13.3186
   693.40         13.5008
   693.54         13.6872
   693.68         13.8736
   693.82         14.0600
   693.96         14.2468
   694.10         14.4325
   694.24         14.6135
   694.38         14.7839
   694.52         14.9384
   694.66         15.0745
   694.80         15.1925
   694.94         15.2956
   695.08         15.3890
   695.22         15.4790
   695.36         15.5721
   695.50         15.6747
   695.64         15.7923
   695.78         15.9291
   695.92         16.0873
   696.06         16.2683
   696.20         16.4715
   696.34         16.6936
   696.48         16.9279
   696.62         17.1643
   696.76         17.3913
   696.90         17.6007
   697.04         17.7906
   697.18         17.9629
   697.32         18.1207
   697.46         18.2675
   697.60         18.4063
   697.74         18.5367
   697.88         18.6543
   698.02         18.7541
   698.16         18.8338
   698.30         18.8931
   698.44         18.9320
   698.58         18.9509
   698.72         18.9510
   698.86         18.9350
   699.00         18.9079
   699.14         18.8775
   699.28         18.8518
   699.42         18.8360
   699.56         18.8344
   699.70         18.8511
   699.84         18.8879
   699.98         18.9441
   700.12         19.0175
   700.26         19.1047
   700.40         19.2019
   700.54         19.3060
   700.68         19.4168
   700.82         19.5350
   700.96         19.6596
   701.10         19.7874
   701.24         19.9141
   701.38         20.0354
   701.52         20.1474
   701.66         20.2454
   701.80         20.3250
   701.94         20.3841
   702.08         20.4242
   702.22         20.4510
   702.36         20.4724
   702.50         20.4948
   702.64         20.5216
   702.78         20.5532
   702.92         20.5881
   703.06         20.6250
   703.20         20.6645
   703.34         20.7097
   703.48         20.7638
   703.62         20.8275
   703.76         20.8997
   703.90         20.9788
   704.04         21.0596
   704.18         21.1261
   704.32         21.1446
   704.46         21.0709
   704.60         20.8626
   704.74         20.4876
   704.88         19.9257
   705.02         19.1731
   705.16         18.2439
   705.30         17.1695
   705.44         15.9979
   705.58         14.7898
   705.72         13.6106
   705.86         12.5226
   706.00         11.5787
   706.14         10.8168
   706.28         10.2555
   706.42         9.8933
   706.56         9.7099
   706.70         9.6692
   706.84         9.7265
   706.98         9.8408
   707.12         9.9852
   707.26         10.1455
   707.40         10.3093
   707.54         10.4610
   707.68         10.5825
   707.82         10.6562
   707.96         10.6673
   708.10         10.6065
   708.24         10.4699
   708.38         10.2593
   708.52         9.9839
   708.66         9.6590
   708.80         9.3028
   708.94         8.9355
   709.08         8.5796
   709.22         8.2569
   709.36         7.9869
   709.50         7.7843
   709.64         7.6575
   709.78         7.6069
   709.92         7.6247
   710.06         7.6984
   710.20         7.8130
   710.34         7.9540
   710.48         8.1112
   710.62         8.2793
   710.76         8.4548
   710.90         8.6339
   711.04         8.8116
   711.18         8.9816
   711.32         9.1325
   711.46         9.2492
   711.60         9.3173
   711.74         9.3264
   711.88         9.2712
   712.02         9.1510
   712.16         8.9697
   712.30         8.7353
   712.44         8.4599
   712.58         8.1586
   712.72         7.8478
   712.86         7.5454
   713.00         7.2696
   713.14         7.0374
   713.28         6.8612
   713.42         6.7466
   713.56         6.6929
   713.70         6.6935
   713.84         6.7371
   713.98         6.8107
   714.12         6.9047
   714.26         7.0139
   714.40         7.1353
   714.54         7.2661
   714.68         7.4017
   714.82         7.5358
   714.96         7.6623
   715.10         7.7763
   715.24         7.8741
   715.38         7.9543
   715.52         8.0177
   715.66         8.0659
   715.80         8.1003
   715.94         8.1221
   716.08         8.1332
   716.22         8.1353
   716.36         8.1301
   716.50         8.1207
   716.64         8.1123
   716.78         8.1104
   716.92         8.1199
   717.06         8.1430
   717.20         8.1793
   717.34         8.2258
   717.48         8.2785
   717.62         8.3348
   717.76         8.3943
   717.90         8.4576
   718.04         8.5244
   718.18         8.5924
   718.32         8.6577
   718.46         8.7165
   718.60         8.7651
   718.74         8.8001
   718.88         8.8196
   719.02         8.8234
   719.16         8.8136
   719.30         8.7928
   719.44         8.7630
   719.58         8.7263
   719.72         8.6862
   719.86         8.6481
   720.00         8.6188
   720.14         8.6067
   720.28         8.6211
   720.42         8.6694
   720.56         8.7544
   720.70         8.8744
   720.84         9.0251
   720.98         9.2006
   721.12         9.3942
   721.26         9.5988
   721.40         9.8085
   721.54         10.0188
   721.68         10.2253
   721.82         10.4233
   721.96         10.6079
   722.10         10.7742
   722.24         10.9184
   722.38         11.0383
   722.52         11.1344
   722.66         11.2106
   722.80         11.2717
   722.94         11.3211
   723.08         11.3627
   723.22         11.4005
   723.36         11.4377
   723.50         11.4798
   723.64         11.5361
   723.78         11.6162
   723.92         11.7257
   724.06         11.8639
   724.20         12.0248
   724.34         12.2018
   724.48         12.3906
   724.62         12.5883
   724.76         12.7923
   724.90         13.0014
   725.04         13.2159
   725.18         13.4371
   725.32         13.6631
   725.46         13.8872
   725.60         14.1049
   725.74         14.3152
   725.88         14.5147
   726.02         14.6974
   726.16         14.8576
   726.30         14.9907
   726.44         15.0912
   726.58         15.1522
   726.72         15.1715
   726.86         15.1563
   727.00         15.1210
   727.14         15.0808
   727.28         15.0490
   727.42         15.0379
   727.56         15.0571
   727.70         15.1124
   727.84         15.2045
   727.98         15.3277
   728.12         15.4724
   728.26         15.6301
   728.40         15.7953
   728.54         15.9647
   728.68         16.1378
   728.82         16.3160
   728.96         16.5018
   729.10         16.6974
   729.24         16.9021
   729.38         17.1138
   729.52         17.3328
   729.66         17.5619
   729.80         17.8027
   729.94         18.0533
   730.08         18.3071
   730.22         18.5563
   730.36         18.7949
   730.50         19.0175
   730.64         19.2205
   730.78         19.4051
   730.92         19.5789
   731.06         19.7508
   731.20         19.9250
   731.34         20.1005
   731.48         20.2747
   731.62         20.4490
   731.76         20.6261
   731.90         20.8069
   732.04         20.9934
   732.18         21.1899
   732.32         21.3987
   732.46         21.6161
   732.60         21.8360
   732.74         22.0551
   732.88         22.2757
   733.02         22.5029
   733.16         22.7400
   733.30         22.9859
   733.44         23.2360
   733.58         23.4833
   733.72         23.7208
   733.86         23.9426
   734.00         24.1439
   734.14         24.3207
   734.28         24.4720
   734.42         24.5962
   734.56         24.6881
   734.70         24.7434
   734.84         24.7642
   734.98         24.7603
   735.12         24.7443
   735.26         24.7285
   735.40         24.7245
   735.54         24.7408
   735.68         24.7826
   735.82         24.8521
   735.96         24.9504
   736.10         25.0799
   736.24         25.2453
   736.38         25.4489
   736.52         25.6874
   736.66         25.9529
   736.80         26.2354
   736.94         26.5256
   737.08         26.8134
   737.22         27.0879
   737.36         27.3417
   737.50         27.5702
   737.64         27.7670
   737.78         27.9233
   737.92         28.0332
   738.06         28.0965
   738.20         28.1192
   738.34         28.1127
   738.48         28.0901
   738.62         28.0636
   738.76         28.0457
   738.90         28.0479
   739.04         28.0765
   739.18         28.1344
   739.32         28.2224
   739.46         28.3385
   739.60         28.4779
   739.74         28.6317
   739.88         28.7895
   740.02         28.9422
   740.16         29.0813
   740.30         29.1998
   740.44         29.2931
   740.58         29.3588
   740.72         29.3945
   740.86         29.4002
   741.00         29.3785
   741.14         29.3327
   741.28         29.2659
   741.42         29.1824
   741.56         29.0889
   741.70         28.9946
   741.84         28.9084
   741.98         28.8357
   742.12         28.7791
   742.26         28.7397
   742.40         28.7164
   742.54         28.7054
   742.68         28.7016
   742.82         28.7008
   742.96         28.7008
   743.10         28.7016
   743.24         28.7054
   743.38         28.7164
   743.52         28.7397
   743.66         28.7791
   743.80         28.8357
   743.94         28.9084
   744.08         28.9946
   744.22         29.0889
