# File YALE1755
# Wavelength [nm]    Normalized Amplitude
   349.70         0.4452
   349.84         0.4472
   349.98         0.4528
   350.12         0.4618
   350.26         0.4729
   350.40         0.4847
   350.54         0.4960
   350.68         0.5058
   350.82         0.5135
   350.96         0.5187
   351.10         0.5206
   351.24         0.5187
   351.38         0.5135
   351.52         0.5058
   351.66         0.4960
   351.80         0.4847
   351.94         0.4729
   352.08         0.4618
   352.22         0.4528
   352.36         0.4472
   352.50         0.4452
   352.64         0.4471
   352.78         0.4525
   352.92         0.4608
   353.06         0.4714
   353.20         0.4836
   353.34         0.4970
   353.48         0.5107
   353.62         0.5233
   353.76         0.5334
   353.90         0.5408
   354.04         0.5455
   354.18         0.5478
   354.32         0.5480
   354.46         0.5471
   354.60         0.5454
   354.74         0.5425
   354.88         0.5381
   355.02         0.5319
   355.16         0.5230
   355.30         0.5110
   355.44         0.4960
   355.58         0.4788
   355.72         0.4602
   355.86         0.4405
   356.00         0.4200
   356.14         0.3988
   356.28         0.3769
   356.42         0.3558
   356.56         0.3368
   356.70         0.3210
   356.84         0.3088
   356.98         0.2999
   357.12         0.2934
   357.26         0.2883
   357.40         0.2842
   357.54         0.2812
   357.68         0.2795
   357.82         0.2794
   357.96         0.2814
   358.10         0.2863
   358.24         0.2946
   358.38         0.3061
   358.52         0.3203
   358.66         0.3365
   358.80         0.3540
   358.94         0.3723
   359.08         0.3910
   359.22         0.4093
   359.36         0.4253
   359.50         0.4375
   359.64         0.4445
   359.78         0.4461
   359.92         0.4428
   360.06         0.4353
   360.20         0.4253
   360.34         0.4148
   360.48         0.4051
   360.62         0.3968
   360.76         0.3902
   360.90         0.3860
   361.04         0.3848
   361.18         0.3871
   361.32         0.3929
   361.46         0.4019
   361.60         0.4137
   361.74         0.4269
   361.88         0.4400
   362.02         0.4520
   362.16         0.4626
   362.30         0.4720
   362.44         0.4799
   362.58         0.4862
   362.72         0.4915
   362.86         0.4961
   363.00         0.4997
   363.14         0.5016
   363.28         0.5021
   363.42         0.5010
   363.56         0.4976
   363.70         0.4908
   363.84         0.4805
   363.98         0.4673
   364.12         0.4521
   364.26         0.4361
   364.40         0.4209
   364.54         0.4082
   364.68         0.3999
   364.82         0.3968
   364.96         0.3991
   365.10         0.4062
   365.24         0.4179
   365.38         0.4337
   365.52         0.4526
   365.66         0.4726
   365.80         0.4920
   365.94         0.5087
   366.08         0.5207
   366.22         0.5272
   366.36         0.5293
   366.50         0.5284
   366.64         0.5255
   366.78         0.5210
   366.92         0.5157
   367.06         0.5105
   367.20         0.5062
   367.34         0.5029
   367.48         0.5005
   367.62         0.4983
   367.76         0.4966
   367.90         0.4959
   368.04         0.4965
   368.18         0.4985
   368.32         0.5017
   368.46         0.5065
   368.60         0.5126
   368.74         0.5202
   368.88         0.5288
   369.02         0.5377
   369.16         0.5460
   369.30         0.5527
   369.44         0.5568
   369.58         0.5574
   369.72         0.5538
   369.86         0.5461
   370.00         0.5348
   370.14         0.5208
   370.28         0.5055
   370.42         0.4907
   370.56         0.4776
   370.70         0.4670
   370.84         0.4589
   370.98         0.4522
   371.12         0.4464
   371.26         0.4405
   371.40         0.4343
   371.54         0.4276
   371.68         0.4206
   371.82         0.4138
   371.96         0.4071
   372.10         0.4004
   372.24         0.3939
   372.38         0.3872
   372.52         0.3799
   372.66         0.3717
   372.80         0.3624
   372.94         0.3527
   373.08         0.3436
   373.22         0.3354
   373.36         0.3284
   373.50         0.3221
   373.64         0.3169
   373.78         0.3134
   373.92         0.3119
   374.06         0.3130
   374.20         0.3169
   374.34         0.3239
   374.48         0.3335
   374.62         0.3451
   374.76         0.3579
   374.90         0.3714
   375.04         0.3855
   375.18         0.4002
   375.32         0.4156
   375.46         0.4315
   375.60         0.4472
   375.74         0.4622
   375.88         0.4758
   376.02         0.4879
   376.16         0.4992
   376.30         0.5111
   376.44         0.5249
   376.58         0.5412
   376.72         0.5597
   376.86         0.5799
   377.00         0.6006
   377.14         0.6205
   377.28         0.6382
   377.42         0.6525
   377.56         0.6623
   377.70         0.6667
   377.84         0.6657
   377.98         0.6600
   378.12         0.6511
   378.26         0.6408
   378.40         0.6304
   378.54         0.6208
   378.68         0.6125
   378.82         0.6063
   378.96         0.6023
   379.10         0.6002
   379.24         0.5993
   379.38         0.5991
   379.52         0.5998
   379.66         0.6014
   379.80         0.6039
   379.94         0.6073
   380.08         0.6111
   380.22         0.6154
   380.36         0.6199
   380.50         0.6244
   380.64         0.6281
   380.78         0.6302
   380.92         0.6298
   381.06         0.6257
   381.20         0.6177
   381.34         0.6055
   381.48         0.5899
   381.62         0.5723
   381.76         0.5542
   381.90         0.5372
   382.04         0.5229
   382.18         0.5125
   382.32         0.5065
   382.46         0.5048
   382.60         0.5066
   382.74         0.5110
   382.88         0.5171
   383.02         0.5240
   383.16         0.5313
   383.30         0.5387
   383.44         0.5465
   383.58         0.5549
   383.72         0.5639
   383.86         0.5735
   384.00         0.5838
   384.14         0.5947
   384.28         0.6054
   384.42         0.6143
   384.56         0.6197
   384.70         0.6201
   384.84         0.6144
   384.98         0.6025
   385.12         0.5851
   385.26         0.5637
   385.40         0.5406
   385.54         0.5189
   385.68         0.5018
   385.82         0.4920
   385.96         0.4910
   386.10         0.4995
   386.24         0.5162
   386.38         0.5383
   386.52         0.5624
   386.66         0.5859
   386.80         0.6064
   386.94         0.6222
   387.08         0.6321
   387.22         0.6355
   387.36         0.6325
   387.50         0.6243
   387.64         0.6127
   387.78         0.6000
   387.92         0.5881
   388.06         0.5792
   388.20         0.5745
   388.34         0.5743
   388.48         0.5776
   388.62         0.5833
   388.76         0.5898
   388.90         0.5960
   389.04         0.6018
   389.18         0.6082
   389.32         0.6159
   389.46         0.6247
   389.60         0.6336
   389.74         0.6416
   389.88         0.6480
   390.02         0.6529
   390.16         0.6567
   390.30         0.6603
   390.44         0.6648
   390.58         0.6706
   390.72         0.6776
   390.86         0.6848
   391.00         0.6912
   391.14         0.6956
   391.28         0.6974
   391.42         0.6967
   391.56         0.6937
   391.70         0.6883
   391.84         0.6803
   391.98         0.6693
   392.12         0.6552
   392.26         0.6389
   392.40         0.6219
   392.54         0.6058
   392.68         0.5921
   392.82         0.5819
   392.96         0.5755
   393.10         0.5723
   393.24         0.5707
   393.38         0.5694
   393.52         0.5678
   393.66         0.5657
   393.80         0.5635
   393.94         0.5622
   394.08         0.5631
   394.22         0.5669
   394.36         0.5738
   394.50         0.5837
   394.64         0.5958
   394.78         0.6088
   394.92         0.6206
   395.06         0.6292
   395.20         0.6335
   395.34         0.6330
   395.48         0.6278
   395.62         0.6182
   395.76         0.6055
   395.90         0.5916
   396.04         0.5792
   396.18         0.5710
   396.32         0.5690
   396.46         0.5753
   396.60         0.5910
   396.74         0.6158
   396.88         0.6483
   397.02         0.6867
   397.16         0.7288
   397.30         0.7723
   397.44         0.8150
   397.58         0.8559
   397.72         0.8943
   397.86         0.9297
   398.00         0.9614
   398.14         0.9887
   398.28         1.0111
   398.42         1.0285
   398.56         1.0417
   398.70         1.0515
   398.84         1.0589
   398.98         1.0646
   399.12         1.0695
   399.26         1.0743
   399.40         1.0795
   399.54         1.0858
   399.68         1.0940
   399.82         1.1049
   399.96         1.1184
   400.10         1.1346
   400.24         1.1528
   400.38         1.1720
   400.52         1.1909
   400.66         1.2083
   400.80         1.2234
   400.94         1.2352
   401.08         1.2429
   401.22         1.2462
   401.36         1.2448
   401.50         1.2389
   401.64         1.2290
   401.78         1.2157
   401.92         1.1995
   402.06         1.1805
   402.20         1.1595
   402.34         1.1377
   402.48         1.1168
   402.62         1.0986
   402.76         1.0847
   402.90         1.0761
   403.04         1.0733
   403.18         1.0761
   403.32         1.0833
   403.46         1.0931
   403.60         1.1040
   403.74         1.1150
   403.88         1.1259
   404.02         1.1367
   404.16         1.1475
   404.30         1.1577
   404.44         1.1671
   404.58         1.1757
   404.72         1.1840
   404.86         1.1929
   405.00         1.2029
   405.14         1.2129
   405.28         1.2216
   405.42         1.2268
   405.56         1.2271
   405.70         1.2214
   405.84         1.2096
   405.98         1.1929
   406.12         1.1734
   406.26         1.1533
   406.40         1.1348
   406.54         1.1188
   406.68         1.1056
   406.82         1.0947
   406.96         1.0860
   407.10         1.0795
   407.24         1.0756
   407.38         1.0741
   407.52         1.0745
   407.66         1.0763
   407.80         1.0793
   407.94         1.0835
   408.08         1.0890
   408.22         1.0958
   408.36         1.1038
   408.50         1.1123
   408.64         1.1205
   408.78         1.1276
   408.92         1.1326
   409.06         1.1350
   409.20         1.1347
   409.34         1.1321
   409.48         1.1277
   409.62         1.1229
   409.76         1.1186
   409.90         1.1157
   410.04         1.1141
   410.18         1.1137
   410.32         1.1145
   410.46         1.1162
   410.60         1.1183
   410.74         1.1204
   410.88         1.1224
   411.02         1.1240
   411.16         1.1254
   411.30         1.1270
   411.44         1.1292
   411.58         1.1324
   411.72         1.1363
   411.86         1.1405
   412.00         1.1447
   412.14         1.1485
   412.28         1.1515
   412.42         1.1532
   412.56         1.1533
   412.70         1.1517
   412.84         1.1487
   412.98         1.1447
   413.12         1.1403
   413.26         1.1363
   413.40         1.1335
   413.54         1.1330
   413.68         1.1356
   413.82         1.1415
   413.96         1.1508
   414.10         1.1628
   414.24         1.1764
   414.38         1.1908
   414.52         1.2052
   414.66         1.2194
   414.80         1.2330
   414.94         1.2457
   415.08         1.2570
   415.22         1.2663
   415.36         1.2730
   415.50         1.2769
   415.64         1.2777
   415.78         1.2760
   415.92         1.2723
   416.06         1.2671
   416.20         1.2600
   416.34         1.2509
   416.48         1.2400
   416.62         1.2283
   416.76         1.2168
   416.90         1.2065
   417.04         1.1981
   417.18         1.1920
   417.32         1.1882
   417.46         1.1865
   417.60         1.1865
   417.74         1.1875
   417.88         1.1891
   418.02         1.1907
   418.16         1.1922
   418.30         1.1936
   418.44         1.1950
   418.58         1.1962
   418.72         1.1965
   418.86         1.1959
   419.00         1.1941
   419.14         1.1913
   419.28         1.1870
   419.42         1.1811
   419.56         1.1731
   419.70         1.1627
   419.84         1.1501
   419.98         1.1357
   420.12         1.1196
   420.26         1.1022
   420.40         1.0837
   420.54         1.0641
   420.68         1.0431
   420.82         1.0204
   420.96         0.9954
   421.10         0.9668
   421.24         0.9334
   421.38         0.8941
   421.52         0.8483
   421.66         0.7963
   421.80         0.7394
   421.94         0.6802
   422.08         0.6215
   422.22         0.5668
   422.36         0.5193
   422.50         0.4823
   422.64         0.4584
   422.78         0.4492
   422.92         0.4548
   423.06         0.4736
   423.20         0.5035
   423.34         0.5416
   423.48         0.5849
   423.62         0.6302
   423.76         0.6744
   423.90         0.7148
   424.04         0.7498
   424.18         0.7782
   424.32         0.8001
   424.46         0.8161
   424.60         0.8274
   424.74         0.8351
   424.88         0.8401
   425.02         0.8434
   425.16         0.8461
   425.30         0.8493
   425.44         0.8534
   425.58         0.8593
   425.72         0.8678
   425.86         0.8791
   426.00         0.8928
   426.14         0.9074
   426.28         0.9213
   426.42         0.9329
   426.56         0.9411
   426.70         0.9458
   426.84         0.9476
   426.98         0.9476
   427.12         0.9472
   427.26         0.9479
   427.40         0.9509
   427.54         0.9567
   427.68         0.9653
   427.82         0.9758
   427.96         0.9867
   428.10         0.9969
   428.24         1.0056
   428.38         1.0122
   428.52         1.0160
   428.66         1.0167
   428.80         1.0146
   428.94         1.0109
   429.08         1.0068
   429.22         1.0037
   429.36         1.0027
   429.50         1.0043
   429.64         1.0083
   429.78         1.0141
   429.92         1.0213
   430.06         1.0298
   430.20         1.0394
   430.34         1.0501
   430.48         1.0619
   430.62         1.0752
   430.76         1.0906
   430.90         1.1078
   431.04         1.1263
   431.18         1.1451
   431.32         1.1637
   431.46         1.1813
   431.60         1.1974
   431.74         1.2121
   431.88         1.2260
   432.02         1.2396
   432.16         1.2532
   432.30         1.2671
   432.44         1.2817
   432.58         1.2974
   432.72         1.3134
   432.86         1.3289
   433.00         1.3430
   433.14         1.3554
   433.28         1.3662
   433.42         1.3760
   433.56         1.3851
   433.70         1.3940
   433.84         1.4027
   433.98         1.4111
   434.12         1.4183
   434.26         1.4235
   434.40         1.4262
   434.54         1.4258
   434.68         1.4218
   434.82         1.4140
   434.96         1.4025
   435.10         1.3876
   435.24         1.3703
   435.38         1.3520
   435.52         1.3345
   435.66         1.3198
   435.80         1.3097
   435.94         1.3056
   436.08         1.3076
   436.22         1.3154
   436.36         1.3277
   436.50         1.3432
   436.64         1.3602
   436.78         1.3772
   436.92         1.3931
   437.06         1.4068
   437.20         1.4169
   437.34         1.4222
   437.48         1.4225
   437.62         1.4180
   437.76         1.4100
   437.90         1.4001
   438.04         1.3906
   438.18         1.3838
   438.32         1.3815
   438.46         1.3847
   438.60         1.3935
   438.74         1.4077
   438.88         1.4266
   439.02         1.4490
   439.16         1.4731
   439.30         1.4963
   439.44         1.5163
   439.58         1.5311
   439.72         1.5399
   439.86         1.5435
   440.00         1.5434
   440.14         1.5419
   440.28         1.5405
   440.42         1.5409
   440.56         1.5446
   440.70         1.5529
   440.84         1.5659
   440.98         1.5831
   441.12         1.6033
   441.26         1.6250
   441.40         1.6459
   441.54         1.6640
   441.68         1.6777
   441.82         1.6867
   441.96         1.6918
   442.10         1.6943
   442.24         1.6955
   442.38         1.6956
   442.52         1.6949
   442.66         1.6937
   442.80         1.6928
   442.94         1.6933
   443.08         1.6965
   443.22         1.7031
   443.36         1.7132
   443.50         1.7265
   443.64         1.7429
   443.78         1.7624
   443.92         1.7848
   444.06         1.8098
   444.20         1.8357
   444.34         1.8598
   444.48         1.8793
   444.62         1.8920
   444.76         1.8966
   444.90         1.8929
   445.04         1.8824
   445.18         1.8679
   445.32         1.8526
   445.46         1.8396
   445.60         1.8308
   445.74         1.8279
   445.88         1.8319
   446.02         1.8434
   446.16         1.8622
   446.30         1.8875
   446.44         1.9176
   446.58         1.9504
   446.72         1.9835
   446.86         2.0150
   447.00         2.0440
   447.14         2.0707
   447.28         2.0953
   447.42         2.1178
   447.56         2.1378
   447.70         2.1548
   447.84         2.1686
   447.98         2.1793
   448.12         2.1871
   448.26         2.1924
   448.40         2.1957
   448.54         2.1979
   448.68         2.1998
   448.82         2.2025
   448.96         2.2067
   449.10         2.2130
   449.24         2.2214
   449.38         2.2317
   449.52         2.2426
   449.66         2.2526
   449.80         2.2605
   449.94         2.2658
   450.08         2.2678
   450.22         2.2664
   450.36         2.2616
   450.50         2.2543
   450.64         2.2460
   450.78         2.2382
   450.92         2.2327
   451.06         2.2311
   451.20         2.2345
   451.34         2.2429
   451.48         2.2554
   451.62         2.2699
   451.76         2.2840
   451.90         2.2960
   452.04         2.3040
   452.18         2.3063
   452.32         2.3027
   452.46         2.2940
   452.60         2.2825
   452.74         2.2713
   452.88         2.2641
   453.02         2.2645
   453.16         2.2747
   453.30         2.2950
   453.44         2.3245
   453.58         2.3604
   453.72         2.3992
   453.86         2.4368
   454.00         2.4693
   454.14         2.4932
   454.28         2.5067
   454.42         2.5101
   454.56         2.5047
   454.70         2.4934
   454.84         2.4801
   454.98         2.4689
   455.12         2.4640
   455.26         2.4686
   455.40         2.4851
   455.54         2.5142
   455.68         2.5547
   455.82         2.6038
   455.96         2.6581
   456.10         2.7140
   456.24         2.7689
   456.38         2.8205
   456.52         2.8667
   456.66         2.9058
   456.80         2.9372
   456.94         2.9607
   457.08         2.9764
   457.22         2.9837
   457.36         2.9815
   457.50         2.9685
   457.64         2.9442
   457.78         2.9098
   457.92         2.8677
   458.06         2.8201
   458.20         2.7691
   458.34         2.7170
   458.48         2.6666
   458.62         2.6214
   458.76         2.5844
   458.90         2.5575
   459.04         2.5417
   459.18         2.5368
   459.32         2.5417
   459.46         2.5545
   459.60         2.5728
   459.74         2.5946
   459.88         2.6187
   460.02         2.6449
   460.16         2.6733
   460.30         2.7045
   460.44         2.7385
   460.58         2.7756
   460.72         2.8155
   460.86         2.8584
   461.00         2.9036
   461.14         2.9498
   461.28         2.9942
   461.42         3.0327
   461.56         3.0609
   461.70         3.0745
   461.84         3.0708
   461.98         3.0490
   462.12         3.0107
   462.26         2.9587
   462.40         2.8967
   462.54         2.8284
   462.68         2.7579
   462.82         2.6900
   462.96         2.6299
   463.10         2.5818
   463.24         2.5486
   463.38         2.5307
   463.52         2.5265
   463.66         2.5329
   463.80         2.5461
   463.94         2.5618
   464.08         2.5766
   464.22         2.5886
   464.36         2.5976
   464.50         2.6046
   464.64         2.6112
   464.78         2.6192
   464.92         2.6301
   465.06         2.6453
   465.20         2.6660
   465.34         2.6926
   465.48         2.7236
   465.62         2.7560
   465.76         2.7855
   465.90         2.8076
   466.04         2.8180
   466.18         2.8137
   466.32         2.7936
   466.46         2.7587
   466.60         2.7119
   466.74         2.6576
   466.88         2.6003
   467.02         2.5443
   467.16         2.4936
   467.30         2.4519
   467.44         2.4216
   467.58         2.4037
   467.72         2.3979
   467.86         2.4028
   468.00         2.4166
   468.14         2.4370
   468.28         2.4616
   468.42         2.4885
   468.56         2.5165
   468.70         2.5445
   468.84         2.5720
   468.98         2.5992
   469.12         2.6262
   469.26         2.6527
   469.40         2.6776
   469.54         2.7003
   469.68         2.7209
   469.82         2.7402
   469.96         2.7592
   470.10         2.7782
   470.24         2.7969
   470.38         2.8137
   470.52         2.8271
   470.66         2.8354
   470.80         2.8376
   470.94         2.8334
   471.08         2.8231
   471.22         2.8083
   471.36         2.7911
   471.50         2.7748
   471.64         2.7620
   471.78         2.7543
   471.92         2.7523
   472.06         2.7567
   472.20         2.7677
   472.34         2.7843
   472.48         2.8049
   472.62         2.8271
   472.76         2.8487
   472.90         2.8679
   473.04         2.8839
   473.18         2.8971
   473.32         2.9087
   473.46         2.9204
   473.60         2.9340
   473.74         2.9513
   473.88         2.9730
   474.02         2.9986
   474.16         3.0261
   474.30         3.0532
   474.44         3.0781
   474.58         3.0993
   474.72         3.1151
   474.86         3.1229
   475.00         3.1192
   475.14         3.1006
   475.28         3.0649
   475.42         3.0113
   475.56         2.9405
   475.70         2.8544
   475.84         2.7569
   475.98         2.6522
   476.12         2.5452
   476.26         2.4408
   476.40         2.3433
   476.54         2.2563
   476.68         2.1828
   476.82         2.1244
   476.96         2.0816
   477.10         2.0535
   477.24         2.0384
   477.38         2.0343
   477.52         2.0391
   477.66         2.0510
   477.80         2.0691
   477.94         2.0936
   478.08         2.1250
   478.22         2.1630
   478.36         2.2067
   478.50         2.2548
   478.64         2.3055
   478.78         2.3572
   478.92         2.4079
   479.06         2.4550
   479.20         2.4959
   479.34         2.5273
   479.48         2.5468
   479.62         2.5530
   479.76         2.5458
   479.90         2.5264
   480.04         2.4963
   480.18         2.4582
   480.32         2.4151
   480.46         2.3712
   480.60         2.3302
   480.74         2.2953
   480.88         2.2690
   481.02         2.2533
   481.16         2.2495
   481.30         2.2575
   481.44         2.2762
   481.58         2.3041
   481.72         2.3383
   481.86         2.3757
   482.00         2.4137
   482.14         2.4508
   482.28         2.4860
   482.42         2.5192
   482.56         2.5509
   482.70         2.5818
   482.84         2.6121
   482.98         2.6406
   483.12         2.6654
   483.26         2.6851
   483.40         2.6983
   483.54         2.7043
   483.68         2.7023
   483.82         2.6914
   483.96         2.6715
   484.10         2.6434
   484.24         2.6082
   484.38         2.5677
   484.52         2.5250
   484.66         2.4842
   484.80         2.4488
   484.94         2.4215
   485.08         2.4040
   485.22         2.3971
   485.36         2.3995
   485.50         2.4093
   485.64         2.4240
   485.78         2.4413
   485.92         2.4596
   486.06         2.4776
   486.20         2.4943
   486.34         2.5092
   486.48         2.5228
   486.62         2.5358
   486.76         2.5490
   486.90         2.5635
   487.04         2.5806
   487.18         2.6015
   487.32         2.6258
   487.46         2.6529
   487.60         2.6819
   487.74         2.7122
   487.88         2.7431
   488.02         2.7736
   488.16         2.8027
   488.30         2.8297
   488.44         2.8546
   488.58         2.8776
   488.72         2.8991
   488.86         2.9196
   489.00         2.9394
   489.14         2.9592
   489.28         2.9799
   489.42         3.0029
   489.56         3.0299
   489.70         3.0620
   489.84         3.0997
   489.98         3.1431
   490.12         3.1921
   490.26         3.2456
   490.40         3.3013
   490.54         3.3569
   490.68         3.4101
   490.82         3.4587
   490.96         3.5008
   491.10         3.5357
   491.24         3.5634
   491.38         3.5847
   491.52         3.6013
   491.66         3.6162
   491.80         3.6322
   491.94         3.6521
   492.08         3.6770
   492.22         3.7068
   492.36         3.7407
   492.50         3.7773
   492.64         3.8151
   492.78         3.8516
   492.92         3.8847
   493.06         3.9134
   493.20         3.9380
   493.34         3.9589
   493.48         3.9773
   493.62         3.9947
   493.76         4.0131
   493.90         4.0349
   494.04         4.0616
   494.18         4.0928
   494.32         4.1240
   494.46         4.1467
   494.60         4.1498
   494.74         4.1234
   494.88         4.0609
   495.02         3.9598
   495.16         3.8215
   495.30         3.6511
   495.44         3.4570
   495.58         3.2506
   495.72         3.0448
   495.86         2.8524
   496.00         2.6852
   496.14         2.5525
   496.28         2.4604
   496.42         2.4111
   496.56         2.4026
   496.70         2.4284
   496.84         2.4781
   496.98         2.5403
   497.12         2.6048
   497.26         2.6651
   497.40         2.7189
   497.54         2.7658
   497.68         2.8067
   497.82         2.8423
   497.96         2.8740
   498.10         2.9031
   498.24         2.9306
   498.38         2.9579
   498.52         2.9856
   498.66         3.0136
   498.80         3.0400
   498.94         3.0620
   499.08         3.0765
   499.22         3.0813
   499.36         3.0744
   499.50         3.0545
   499.64         3.0218
   499.78         2.9778
   499.92         2.9259
   500.06         2.8703
   500.20         2.8144
   500.34         2.7607
   500.48         2.7116
   500.62         2.6690
   500.76         2.6355
   500.90         2.6129
   501.04         2.6015
   501.18         2.6002
   501.32         2.6068
   501.46         2.6192
   501.60         2.6358
   501.74         2.6556
   501.88         2.6779
   502.02         2.7019
   502.16         2.7270
   502.30         2.7530
   502.44         2.7798
   502.58         2.8074
   502.72         2.8356
   502.86         2.8637
   503.00         2.8910
   503.14         2.9177
   503.28         2.9446
   503.42         2.9725
   503.56         3.0018
   503.70         3.0325
   503.84         3.0642
   503.98         3.0963
   504.12         3.1281
   504.26         3.1583
   504.40         3.1855
   504.54         3.2085
   504.68         3.2264
   504.82         3.2392
   504.96         3.2473
   505.10         3.2512
   505.24         3.2514
   505.38         3.2487
   505.52         3.2444
   505.66         3.2398
   505.80         3.2367
   505.94         3.2364
   506.08         3.2396
   506.22         3.2464
   506.36         3.2562
   506.50         3.2679
   506.64         3.2803
   506.78         3.2931
   506.92         3.3052
   507.06         3.3156
   507.20         3.3233
   507.34         3.3280
   507.48         3.3299
   507.62         3.3294
   507.76         3.3270
   507.90         3.3234
   508.04         3.3201
   508.18         3.3187
   508.32         3.3206
   508.46         3.3262
   508.60         3.3353
   508.74         3.3475
   508.88         3.3615
   509.02         3.3751
   509.16         3.3861
   509.30         3.3921
   509.44         3.3919
   509.58         3.3847
   509.72         3.3713
   509.86         3.3542
   510.00         3.3364
   510.14         3.3209
   510.28         3.3101
   510.42         3.3059
   510.56         3.3100
   510.70         3.3230
   510.84         3.3442
   510.98         3.3717
   511.12         3.4028
   511.26         3.4345
   511.40         3.4631
   511.54         3.4850
   511.68         3.4974
   511.82         3.4995
   511.96         3.4924
   512.10         3.4796
   512.24         3.4654
   512.38         3.4543
   512.52         3.4502
   512.66         3.4558
   512.80         3.4721
   512.94         3.4983
   513.08         3.5326
   513.22         3.5722
   513.36         3.6130
   513.50         3.6511
   513.64         3.6838
   513.78         3.7091
   513.92         3.7248
   514.06         3.7298
   514.20         3.7235
   514.34         3.7073
   514.48         3.6845
   514.62         3.6605
   514.76         3.6406
   514.90         3.6290
   515.04         3.6287
   515.18         3.6408
   515.32         3.6639
   515.46         3.6927
   515.60         3.7186
   515.74         3.7312
   515.88         3.7202
   516.02         3.6775
   516.16         3.5990
   516.30         3.4842
   516.44         3.3364
   516.58         3.1617
   516.72         2.9697
   516.86         2.7727
   517.00         2.5841
   517.14         2.4167
   517.28         2.2811
   517.42         2.1845
   517.56         2.1303
   517.70         2.1181
   517.84         2.1434
   517.98         2.1980
   518.12         2.2726
   518.26         2.3587
   518.40         2.4508
   518.54         2.5463
   518.68         2.6431
   518.82         2.7388
   518.96         2.8304
   519.10         2.9137
   519.24         2.9842
   519.38         3.0375
   519.52         3.0702
   519.66         3.0812
   519.80         3.0717
   519.94         3.0462
   520.08         3.0117
   520.22         2.9771
   520.36         2.9509
   520.50         2.9407
   520.64         2.9533
   520.78         2.9939
   520.92         3.0652
   521.06         3.1662
   521.20         3.2920
   521.34         3.4338
   521.48         3.5811
   521.62         3.7241
   521.76         3.8546
   521.90         3.9670
   522.04         4.0588
   522.18         4.1303
   522.32         4.1845
   522.46         4.2260
   522.60         4.2604
   522.74         4.2918
   522.88         4.3214
   523.02         4.3479
   523.16         4.3691
   523.30         4.3831
   523.44         4.3885
   523.58         4.3835
   523.72         4.3675
   523.86         4.3411
   524.00         4.3068
   524.14         4.2687
   524.28         4.2317
   524.42         4.2000
   524.56         4.1768
   524.70         4.1638
   524.84         4.1611
   524.98         4.1669
   525.12         4.1778
   525.26         4.1891
   525.40         4.1954
   525.54         4.1922
   525.68         4.1764
   525.82         4.1469
   525.96         4.1049
   526.10         4.0542
   526.24         4.0004
   526.38         3.9506
   526.52         3.9120
   526.66         3.8903
   526.80         3.8893
   526.94         3.9099
   527.08         3.9505
   527.22         4.0080
   527.36         4.0782
   527.50         4.1562
   527.64         4.2374
   527.78         4.3171
   527.92         4.3918
   528.06         4.4592
   528.20         4.5187
   528.34         4.5704
   528.48         4.6148
   528.62         4.6525
   528.76         4.6838
   528.90         4.7093
   529.04         4.7292
   529.18         4.7445
   529.32         4.7562
   529.46         4.7656
   529.60         4.7737
   529.74         4.7811
   529.88         4.7883
   530.02         4.7954
   530.16         4.8016
   530.30         4.8062
   530.44         4.8084
   530.58         4.8082
   530.72         4.8056
   530.86         4.8004
   531.00         4.7924
   531.14         4.7821
   531.28         4.7707
   531.42         4.7597
   531.56         4.7493
   531.70         4.7380
   531.84         4.7243
   531.98         4.7073
   532.12         4.6865
   532.26         4.6624
   532.40         4.6366
   532.54         4.6118
   532.68         4.5907
   532.82         4.5754
   532.96         4.5676
   533.10         4.5684
   533.24         4.5779
   533.38         4.5952
   533.52         4.6186
   533.66         4.6464
   533.80         4.6765
   533.94         4.7074
   534.08         4.7382
   534.22         4.7696
   534.36         4.8033
   534.50         4.8417
   534.64         4.8850
   534.78         4.9309
   534.92         4.9764
   535.06         5.0185
   535.20         5.0543
   535.34         5.0811
   535.48         5.0977
   535.62         5.1037
   535.76         5.0994
   535.90         5.0850
   536.04         5.0618
   536.18         5.0323
   536.32         5.0011
   536.46         4.9735
   536.60         4.9549
   536.74         4.9496
   536.88         4.9604
   537.02         4.9882
   537.16         5.0316
   537.30         5.0878
   537.44         5.1540
   537.58         5.2271
   537.72         5.3031
   537.86         5.3771
   538.00         5.4437
   538.14         5.4987
   538.28         5.5386
   538.42         5.5607
   538.56         5.5638
   538.70         5.5504
   538.84         5.5260
   538.98         5.4975
   539.12         5.4705
   539.26         5.4487
   539.40         5.4336
   539.54         5.4253
   539.68         5.4229
   539.82         5.4240
   539.96         5.4269
   540.10         5.4306
   540.24         5.4352
   540.38         5.4407
   540.52         5.4474
   540.66         5.4568
   540.80         5.4709
   540.94         5.4918
   541.08         5.5211
   541.22         5.5596
   541.36         5.6074
   541.50         5.6626
   541.64         5.7203
   541.78         5.7736
   541.92         5.8161
   542.06         5.8431
   542.20         5.8522
   542.34         5.8433
   542.48         5.8193
   542.62         5.7857
   542.76         5.7494
   542.90         5.7172
   543.04         5.6955
   543.18         5.6890
   543.32         5.6993
   543.46         5.7234
   543.60         5.7532
   543.74         5.7765
   543.88         5.7801
   544.02         5.7525
   544.16         5.6848
   544.30         5.5720
   544.44         5.4142
   544.58         5.2168
   544.72         4.9905
   544.86         4.7495
   545.00         4.5103
   545.14         4.2892
   545.28         4.1000
   545.42         3.9526
   545.56         3.8524
   545.70         3.7997
   545.84         3.7892
   545.98         3.8119
   546.12         3.8572
   546.26         3.9153
   546.40         3.9783
   546.54         4.0407
   546.68         4.0990
   546.82         4.1509
   546.96         4.1956
   547.10         4.2334
   547.24         4.2662
   547.38         4.2961
   547.52         4.3247
   547.66         4.3530
   547.80         4.3819
   547.94         4.4118
   548.08         4.4434
   548.22         4.4767
   548.36         4.5111
   548.50         4.5448
   548.64         4.5748
   548.78         4.5971
   548.92         4.6075
   549.06         4.6028
   549.20         4.5809
   549.34         4.5412
   549.48         4.4846
   549.62         4.4141
   549.76         4.3336
   549.90         4.2481
   550.04         4.1616
   550.18         4.0782
   550.32         4.0020
   550.46         3.9368
   550.60         3.8855
   550.74         3.8493
   550.88         3.8283
   551.02         3.8211
   551.16         3.8249
   551.30         3.8361
   551.44         3.8517
   551.58         3.8695
   551.72         3.8878
   551.86         3.9055
   552.00         3.9215
   552.14         3.9350
   552.28         3.9450
   552.42         3.9502
   552.56         3.9493
   552.70         3.9415
   552.84         3.9270
   552.98         3.9070
   553.12         3.8833
   553.26         3.8577
   553.40         3.8317
   553.54         3.8067
   553.68         3.7838
   553.82         3.7642
   553.96         3.7496
   554.10         3.7415
   554.24         3.7414
   554.38         3.7503
   554.52         3.7683
   554.66         3.7947
   554.80         3.8279
   554.94         3.8662
   555.08         3.9076
   555.22         3.9511
   555.36         3.9954
   555.50         4.0396
   555.64         4.0830
   555.78         4.1250
   555.92         4.1655
   556.06         4.2045
   556.20         4.2427
   556.34         4.2803
   556.48         4.3178
   556.62         4.3560
   556.76         4.3954
   556.90         4.4363
   557.04         4.4783
   557.18         4.5208
   557.32         4.5631
   557.46         4.6049
   557.60         4.6453
   557.74         4.6831
   557.88         4.7170
   558.02         4.7459
   558.16         4.7688
   558.30         4.7854
   558.44         4.7955
   558.58         4.7987
   558.72         4.7932
   558.86         4.7763
   559.00         4.7466
   559.14         4.7042
   559.28         4.6500
   559.42         4.5860
   559.56         4.5145
   559.70         4.4393
   559.84         4.3644
   559.98         4.2941
   560.12         4.2322
   560.26         4.1813
   560.40         4.1428
   560.54         4.1171
   560.68         4.1029
   560.82         4.0978
   560.96         4.0986
   561.10         4.1018
   561.24         4.1041
   561.38         4.1039
   561.52         4.1015
   561.66         4.0986
   561.80         4.0960
   561.94         4.0938
   562.08         4.0914
   562.22         4.0888
   562.36         4.0866
   562.50         4.0853
   562.64         4.0852
   562.78         4.0863
   562.92         4.0878
   563.06         4.0894
   563.20         4.0911
   563.34         4.0932
   563.48         4.0971
   563.62         4.1046
   563.76         4.1173
   563.90         4.1362
   564.04         4.1613
   564.18         4.1921
   564.32         4.2283
   564.46         4.2690
   564.60         4.3142
   564.74         4.3642
   564.88         4.4189
   565.02         4.4763
   565.16         4.5323
   565.30         4.5821
   565.44         4.6217
   565.58         4.6477
   565.72         4.6587
   565.86         4.6539
   566.00         4.6339
   566.14         4.6005
   566.28         4.5575
   566.42         4.5089
   566.56         4.4596
   566.70         4.4146
   566.84         4.3789
   566.98         4.3562
   567.12         4.3482
   567.26         4.3551
   567.40         4.3757
   567.54         4.4076
   567.68         4.4476
   567.82         4.4920
   567.96         4.5384
   568.10         4.5849
   568.24         4.6300
   568.38         4.6723
   568.52         4.7103
   568.66         4.7436
   568.80         4.7733
   568.94         4.8005
   569.08         4.8257
   569.22         4.8495
   569.36         4.8723
   569.50         4.8949
   569.64         4.9184
   569.78         4.9437
   569.92         4.9718
   570.06         5.0033
   570.20         5.0378
   570.34         5.0741
   570.48         5.1105
   570.62         5.1454
   570.76         5.1766
   570.90         5.2018
   571.04         5.2194
   571.18         5.2294
   571.32         5.2328
   571.46         5.2313
   571.60         5.2265
   571.74         5.2200
   571.88         5.2137
   572.02         5.2103
   572.16         5.2122
   572.30         5.2211
   572.44         5.2374
   572.58         5.2604
   572.72         5.2880
   572.86         5.3181
   573.00         5.3485
   573.14         5.3776
   573.28         5.4043
   573.42         5.4281
   573.56         5.4496
   573.70         5.4704
   573.84         5.4927
   573.98         5.5184
   574.12         5.5487
   574.26         5.5843
   574.40         5.6257
   574.54         5.6730
   574.68         5.7246
   574.82         5.7769
   574.96         5.8243
   575.10         5.8600
   575.24         5.8777
   575.38         5.8729
   575.52         5.8437
   575.66         5.7909
   575.80         5.7177
   575.94         5.6298
   576.08         5.5342
   576.22         5.4382
   576.36         5.3488
   576.50         5.2720
   576.64         5.2118
   576.78         5.1702
   576.92         5.1481
   577.06         5.1445
   577.20         5.1571
   577.34         5.1826
   577.48         5.2173
   577.62         5.2574
   577.76         5.3004
   577.90         5.3451
   578.04         5.3914
   578.18         5.4402
   578.32         5.4924
   578.46         5.5486
   578.60         5.6085
   578.74         5.6710
   578.88         5.7348
   579.02         5.7985
   579.16         5.8615
   579.30         5.9234
   579.44         5.9840
   579.58         6.0429
   579.72         6.0992
   579.86         6.1502
   580.00         6.1913
   580.14         6.2165
   580.28         6.2207
   580.42         6.1996
   580.56         6.1512
   580.70         6.0754
   580.84         5.9745
   580.98         5.8527
   581.12         5.7159
   581.26         5.5721
   581.40         5.4297
   581.54         5.2977
   581.68         5.1842
   581.82         5.0960
   581.96         5.0378
   582.10         5.0113
   582.24         5.0148
   582.38         5.0436
   582.52         5.0907
   582.66         5.1487
   582.80         5.2100
   582.94         5.2683
   583.08         5.3187
   583.22         5.3585
   583.36         5.3868
   583.50         5.4032
   583.64         5.4067
   583.78         5.3958
   583.92         5.3689
   584.06         5.3253
   584.20         5.2654
   584.34         5.1912
   584.48         5.1055
   584.62         5.0114
   584.76         4.9125
   584.90         4.8123
   585.04         4.7144
   585.18         4.6216
   585.32         4.5359
   585.46         4.4587
   585.60         4.3913
   585.74         4.3348
   585.88         4.2892
   586.02         4.2522
   586.16         4.2195
   586.30         4.1870
   586.44         4.1513
   586.58         4.1103
   586.72         4.0632
   586.86         4.0101
   587.00         3.9514
   587.14         3.8875
   587.28         3.8184
   587.42         3.7429
   587.56         3.6581
   587.70         3.5600
   587.84         3.4449
   587.98         3.3119
   588.12         3.1629
   588.26         3.0015
   588.40         2.8320
   588.54         2.6594
   588.68         2.4913
   588.82         2.3370
   588.96         2.2067
   589.10         2.1093
   589.24         2.0512
   589.38         2.0358
   589.52         2.0627
   589.66         2.1277
   589.80         2.2236
   589.94         2.3410
   590.08         2.4698
   590.22         2.6009
   590.36         2.7278
   590.50         2.8465
   590.64         2.9553
   590.78         3.0526
   590.92         3.1367
   591.06         3.2074
   591.20         3.2663
   591.34         3.3157
   591.48         3.3566
   591.62         3.3893
   591.76         3.4140
   591.90         3.4311
   592.04         3.4421
   592.18         3.4497
   592.32         3.4573
   592.46         3.4682
   592.60         3.4851
   592.74         3.5099
   592.88         3.5435
   593.02         3.5853
   593.16         3.6340
   593.30         3.6879
   593.44         3.7444
   593.58         3.8000
   593.72         3.8510
   593.86         3.8937
   594.00         3.9256
   594.14         3.9455
   594.28         3.9533
   594.42         3.9491
   594.56         3.9339
   594.70         3.9101
   594.84         3.8805
   594.98         3.8478
   595.12         3.8148
   595.26         3.7839
   595.40         3.7574
   595.54         3.7376
   595.68         3.7264
   595.82         3.7248
   595.96         3.7321
   596.10         3.7455
   596.24         3.7619
   596.38         3.7795
   596.52         3.7975
   596.66         3.8154
   596.80         3.8325
   596.94         3.8484
   597.08         3.8636
   597.22         3.8794
   597.36         3.8977
   597.50         3.9198
   597.64         3.9463
   597.78         3.9775
   597.92         4.0133
   598.06         4.0537
   598.20         4.0981
   598.34         4.1457
   598.48         4.1951
   598.62         4.2445
   598.76         4.2920
   598.90         4.3356
   599.04         4.3740
   599.18         4.4058
   599.32         4.4300
   599.46         4.4464
   599.60         4.4555
   599.74         4.4581
   599.88         4.4558
   600.02         4.4506
   600.16         4.4445
   600.30         4.4391
   600.44         4.4362
   600.58         4.4380
   600.72         4.4465
   600.86         4.4620
   601.00         4.4841
   601.14         4.5116
   601.28         4.5428
   601.42         4.5759
   601.56         4.6102
   601.70         4.6459
   601.84         4.6833
   601.98         4.7217
   602.12         4.7603
   602.26         4.7979
   602.40         4.8322
   602.54         4.8604
   602.68         4.8807
   602.82         4.8931
   602.96         4.8989
   603.10         4.9007
   603.24         4.9014
   603.38         4.9037
   603.52         4.9096
   603.66         4.9213
   603.80         4.9403
   603.94         4.9680
   604.08         5.0045
   604.22         5.0489
   604.36         5.0995
   604.50         5.1531
   604.64         5.2065
   604.78         5.2569
   604.92         5.3017
   605.06         5.3390
   605.20         5.3680
   605.34         5.3893
   605.48         5.4033
   605.62         5.4108
   605.76         5.4135
   605.90         5.4133
   606.04         5.4123
   606.18         5.4121
   606.32         5.4141
   606.46         5.4193
   606.60         5.4275
   606.74         5.4375
   606.88         5.4475
   607.02         5.4559
   607.16         5.4618
   607.30         5.4648
   607.44         5.4648
   607.58         5.4620
   607.72         5.4570
   607.86         5.4514
   608.00         5.4476
   608.14         5.4487
   608.28         5.4580
   608.42         5.4767
   608.56         5.5038
   608.70         5.5369
   608.84         5.5727
   608.98         5.6070
   609.12         5.6353
   609.26         5.6537
   609.40         5.6604
   609.54         5.6562
   609.68         5.6434
   609.82         5.6251
   609.96         5.6039
   610.10         5.5835
   610.24         5.5678
   610.38         5.5598
   610.52         5.5607
   610.66         5.5703
   610.80         5.5864
   610.94         5.6054
   611.08         5.6218
   611.22         5.6316
   611.36         5.6330
   611.50         5.6265
   611.64         5.6140
   611.78         5.5989
   611.92         5.5861
   612.06         5.5799
   612.20         5.5835
   612.34         5.5982
   612.48         5.6239
   612.62         5.6594
   612.76         5.7027
   612.90         5.7508
   613.04         5.8000
   613.18         5.8466
   613.32         5.8881
   613.46         5.9231
   613.60         5.9497
   613.74         5.9658
   613.88         5.9702
   614.02         5.9625
   614.16         5.9423
   614.30         5.9086
   614.44         5.8599
   614.58         5.7946
   614.72         5.7104
   614.86         5.6050
   615.00         5.4770
   615.14         5.3260
   615.28         5.1539
   615.42         4.9654
   615.56         4.7667
   615.70         4.5649
   615.84         4.3669
   615.98         4.1798
   616.12         4.0099
   616.26         3.8620
   616.40         3.7397
   616.54         3.6464
   616.68         3.5841
   616.82         3.5520
   616.96         3.5460
   617.10         3.5595
   617.24         3.5844
   617.38         3.6122
   617.52         3.6351
   617.66         3.6473
   617.80         3.6456
   617.94         3.6288
   618.08         3.5977
   618.22         3.5542
   618.36         3.5008
   618.50         3.4414
   618.64         3.3807
   618.78         3.3237
   618.92         3.2749
   619.06         3.2385
   619.20         3.2175
   619.34         3.2133
   619.48         3.2249
   619.62         3.2501
   619.76         3.2852
   619.90         3.3259
   620.04         3.3674
   620.18         3.4052
   620.32         3.4348
   620.46         3.4521
   620.60         3.4546
   620.74         3.4412
   620.88         3.4119
   621.02         3.3679
   621.16         3.3109
   621.30         3.2434
   621.44         3.1685
   621.58         3.0900
   621.72         3.0119
   621.86         2.9383
   622.00         2.8727
   622.14         2.8182
   622.28         2.7770
   622.42         2.7500
   622.56         2.7364
   622.70         2.7351
   622.84         2.7443
   622.98         2.7619
   623.12         2.7862
   623.26         2.8157
   623.40         2.8484
   623.54         2.8822
   623.68         2.9155
   623.82         2.9475
   623.96         2.9783
   624.10         3.0086
   624.24         3.0390
   624.38         3.0703
   624.52         3.1034
   624.66         3.1399
   624.80         3.1812
   624.94         3.2284
   625.08         3.2814
   625.22         3.3391
   625.36         3.3994
   625.50         3.4605
   625.64         3.5203
   625.78         3.5768
   625.92         3.6291
   626.06         3.6767
   626.20         3.7195
   626.34         3.7572
   626.48         3.7891
   626.62         3.8145
   626.76         3.8334
   626.90         3.8467
   627.04         3.8561
   627.18         3.8640
   627.32         3.8728
   627.46         3.8851
   627.60         3.9031
   627.74         3.9283
   627.88         3.9612
   628.02         4.0017
   628.16         4.0494
   628.30         4.1031
   628.44         4.1617
   628.58         4.2236
   628.72         4.2873
   628.86         4.3516
   629.00         4.4153
   629.14         4.4778
   629.28         4.5399
   629.42         4.6030
   629.56         4.6684
   629.70         4.7372
   629.84         4.8105
   629.98         4.8885
   630.12         4.9705
   630.26         5.0548
   630.40         5.1392
   630.54         5.2216
   630.68         5.3004
   630.82         5.3745
   630.96         5.4431
   631.10         5.5055
   631.24         5.5618
   631.38         5.6130
   631.52         5.6600
   631.66         5.7037
   631.80         5.7451
   631.94         5.7854
   632.08         5.8260
   632.22         5.8674
   632.36         5.9100
   632.50         5.9536
   632.64         5.9982
   632.78         6.0440
   632.92         6.0918
   633.06         6.1423
   633.20         6.1953
   633.34         6.2502
   633.48         6.3070
   633.62         6.3661
   633.76         6.4274
   633.90         6.4898
   634.04         6.5518
   634.18         6.6110
   634.32         6.6638
   634.46         6.7056
   634.60         6.7322
   634.74         6.7408
   634.88         6.7307
   635.02         6.7031
   635.16         6.6611
   635.30         6.6092
   635.44         6.5527
   635.58         6.4966
   635.72         6.4450
   635.86         6.4017
   636.00         6.3701
   636.14         6.3524
   636.28         6.3491
   636.42         6.3584
   636.56         6.3778
   636.70         6.4032
   636.84         6.4284
   636.98         6.4468
   637.12         6.4538
   637.26         6.4475
   637.40         6.4277
   637.54         6.3941
   637.68         6.3476
   637.82         6.2913
   637.96         6.2302
   638.10         6.1708
   638.24         6.1199
   638.38         6.0843
   638.52         6.0701
   638.66         6.0812
   638.80         6.1188
   638.94         6.1810
   639.08         6.2635
   639.22         6.3610
   639.36         6.4677
   639.50         6.5792
   639.64         6.6928
   639.78         6.8073
   639.92         6.9215
   640.06         7.0336
   640.20         7.1420
   640.34         7.2452
   640.48         7.3411
   640.62         7.4269
   640.76         7.4990
   640.90         7.5540
   641.04         7.5884
   641.18         7.6002
   641.32         7.5898
   641.46         7.5601
   641.60         7.5164
   641.74         7.4651
   641.88         7.4142
   642.02         7.3710
   642.16         7.3420
   642.30         7.3317
   642.44         7.3409
   642.58         7.3668
   642.72         7.4037
   642.86         7.4458
   643.00         7.4891
   643.14         7.5323
   643.28         7.5763
   643.42         7.6222
   643.56         7.6698
   643.70         7.7181
   643.84         7.7662
   643.98         7.8145
   644.12         7.8639
   644.26         7.9154
   644.40         7.9695
   644.54         8.0262
   644.68         8.0845
   644.82         8.1426
   644.96         8.1975
   645.10         8.2453
   645.24         8.2839
   645.38         8.3149
   645.52         8.3440
   645.66         8.3779
   645.80         8.4208
   645.94         8.4733
   646.08         8.5336
   646.22         8.5993
   646.36         8.6692
   646.50         8.7429
   646.64         8.8197
   646.78         8.8957
   646.92         8.9645
   647.06         9.0191
   647.20         9.0532
   647.34         9.0619
   647.48         9.0433
   647.62         8.9992
   647.76         8.9348
   647.90         8.8578
   648.04         8.7761
   648.18         8.6962
   648.32         8.6217
   648.46         8.5557
   648.60         8.5011
   648.74         8.4615
   648.88         8.4399
   649.02         8.4387
   649.16         8.4587
   649.30         8.4986
   649.44         8.5554
   649.58         8.6265
   649.72         8.7095
   649.86         8.8015
   650.00         8.8996
   650.14         9.0006
   650.28         9.1003
   650.42         9.1937
   650.56         9.2767
   650.70         9.3482
   650.84         9.4099
   650.98         9.4660
   651.12         9.5213
   651.26         9.5801
   651.40         9.6461
   651.54         9.7219
   651.68         9.8084
   651.82         9.9047
   651.96         10.0073
   652.10         10.1116
   652.24         10.2142
   652.38         10.3122
   652.52         10.4029
   652.66         10.4842
   652.80         10.5558
   652.94         10.6195
   653.08         10.6778
   653.22         10.7323
   653.36         10.7828
   653.50         10.8265
   653.64         10.8584
   653.78         10.8725
   653.92         10.8631
   654.06         10.8253
   654.20         10.7560
   654.34         10.6560
   654.48         10.5289
   654.62         10.3819
   654.76         10.2258
   654.90         10.0730
   655.04         9.9338
   655.18         9.8149
   655.32         9.7204
   655.46         9.6512
   655.60         9.6045
   655.74         9.5743
   655.88         9.5526
   656.02         9.5317
   656.16         9.5053
   656.30         9.4690
   656.44         9.4211
   656.58         9.3627
   656.72         9.2964
   656.86         9.2260
   657.00         9.1570
   657.14         9.0955
   657.28         9.0471
   657.42         9.0164
   657.56         9.0059
   657.70         9.0163
   657.84         9.0461
   657.98         9.0916
   658.12         9.1464
   658.26         9.2025
   658.40         9.2521
   658.54         9.2884
   658.68         9.3067
   658.82         9.3050
   658.96         9.2833
   659.10         9.2435
   659.24         9.1892
   659.38         9.1256
   659.52         9.0585
   659.66         8.9948
   659.80         8.9401
   659.94         8.8980
   660.08         8.8699
   660.22         8.8550
   660.36         8.8499
   660.50         8.8487
   660.64         8.8455
   660.78         8.8343
   660.92         8.8119
   661.06         8.7767
   661.20         8.7280
   661.34         8.6653
   661.48         8.5888
   661.62         8.4999
   661.76         8.4020
   661.90         8.3008
   662.04         8.2019
   662.18         8.1103
   662.32         8.0288
   662.46         7.9588
   662.60         7.9008
   662.74         7.8539
   662.88         7.8166
   663.02         7.7869
   663.16         7.7624
   663.30         7.7405
   663.44         7.7185
   663.58         7.6939
   663.72         7.6640
   663.86         7.6249
   664.00         7.5723
   664.14         7.5039
   664.28         7.4200
   664.42         7.3232
   664.56         7.2160
   664.70         7.1008
   664.84         6.9809
   664.98         6.8615
   665.12         6.7496
   665.26         6.6526
   665.40         6.5771
   665.54         6.5277
   665.68         6.5067
   665.82         6.5130
   665.96         6.5433
   666.10         6.5923
   666.24         6.6532
   666.38         6.7177
   666.52         6.7772
   666.66         6.8251
   666.80         6.8560
   666.94         6.8653
   667.08         6.8484
   667.22         6.8030
   667.36         6.7302
   667.50         6.6345
   667.64         6.5228
   667.78         6.4026
   667.92         6.2821
   668.06         6.1688
   668.20         6.0686
   668.34         5.9864
   668.48         5.9257
   668.62         5.8882
   668.76         5.8731
   668.90         5.8782
   669.04         5.9003
   669.18         5.9361
   669.32         5.9817
   669.46         6.0333
   669.60         6.0877
   669.74         6.1426
   669.88         6.1966
   670.02         6.2475
   670.16         6.2915
   670.30         6.3229
   670.44         6.3348
   670.58         6.3213
   670.72         6.2785
   670.86         6.2061
   671.00         6.1075
   671.14         5.9885
   671.28         5.8564
   671.42         5.7204
   671.56         5.5903
   671.70         5.4744
   671.84         5.3793
   671.98         5.3091
   672.12         5.2661
   672.26         5.2506
   672.40         5.2609
   672.54         5.2932
   672.68         5.3427
   672.82         5.4036
   672.96         5.4704
   673.10         5.5388
   673.24         5.6066
   673.38         5.6725
   673.52         5.7347
   673.66         5.7899
   673.80         5.8336
   673.94         5.8624
   674.08         5.8745
   674.22         5.8694
   674.36         5.8485
   674.50         5.8153
   674.64         5.7748
   674.78         5.7326
   674.92         5.6943
   675.06         5.6653
   675.20         5.6502
   675.34         5.6526
   675.48         5.6738
   675.62         5.7129
   675.76         5.7664
   675.90         5.8299
   676.04         5.8975
   676.18         5.9638
   676.32         6.0249
   676.46         6.0786
   676.60         6.1246
   676.74         6.1634
   676.88         6.1948
   677.02         6.2166
   677.16         6.2256
   677.30         6.2190
   677.44         6.1957
   677.58         6.1561
   677.72         6.1023
   677.86         6.0377
   678.00         5.9659
   678.14         5.8908
   678.28         5.8169
   678.42         5.7494
   678.56         5.6939
   678.70         5.6549
   678.84         5.6350
   678.98         5.6354
   679.12         5.6543
   679.26         5.6882
   679.40         5.7320
   679.54         5.7801
   679.68         5.8286
   679.82         5.8753
   679.96         5.9200
   680.10         5.9630
   680.24         6.0043
   680.38         6.0433
   680.52         6.0782
   680.66         6.1066
   680.80         6.1269
   680.94         6.1377
   681.08         6.1383
   681.22         6.1295
   681.36         6.1134
   681.50         6.0931
   681.64         6.0720
   681.78         6.0533
   681.92         6.0404
   682.06         6.0359
   682.20         6.0416
   682.34         6.0577
   682.48         6.0832
   682.62         6.1164
   682.76         6.1551
   682.90         6.1973
   683.04         6.2415
   683.18         6.2869
   683.32         6.3324
   683.46         6.3764
   683.60         6.4173
   683.74         6.4541
   683.88         6.4845
   684.02         6.5053
   684.16         6.5130
   684.30         6.5042
   684.44         6.4773
   684.58         6.4321
   684.72         6.3707
   684.86         6.2975
   685.00         6.2186
   685.14         6.1406
   685.28         6.0689
   685.42         6.0056
   685.56         5.9491
   685.70         5.8943
   685.84         5.8347
   685.98         5.7646
   686.12         5.6814
   686.26         5.5859
   686.40         5.4816
   686.54         5.3750
   686.68         5.2754
   686.82         5.1928
   686.96         5.1366
   687.10         5.1139
   687.24         5.1283
   687.38         5.1794
   687.52         5.2627
   687.66         5.3706
   687.80         5.4926
   687.94         5.6165
   688.08         5.7300
   688.22         5.8247
   688.36         5.8968
   688.50         5.9482
   688.64         5.9844
   688.78         6.0107
   688.92         6.0315
   689.06         6.0504
   689.20         6.0716
   689.34         6.0993
   689.48         6.1375
   689.62         6.1890
   689.76         6.2553
   689.90         6.3367
   690.04         6.4322
   690.18         6.5400
   690.32         6.6564
   690.46         6.7761
   690.60         6.8919
   690.74         6.9966
   690.88         7.0850
   691.02         7.1549
   691.16         7.2067
   691.30         7.2429
   691.44         7.2674
   691.58         7.2865
   691.72         7.3083
   691.86         7.3406
   692.00         7.3892
   692.14         7.4561
   692.28         7.5407
   692.42         7.6402
   692.56         7.7510
   692.70         7.8692
   692.84         7.9907
   692.98         8.1124
   693.12         8.2329
   693.26         8.3526
   693.40         8.4742
   693.54         8.6012
   693.68         8.7354
   693.82         8.8756
   693.96         9.0186
   694.10         9.1592
   694.24         9.2917
   694.38         9.4104
   694.52         9.5109
   694.66         9.5902
   694.80         9.6469
   694.94         9.6821
   695.08         9.6987
   695.22         9.7019
   695.36         9.6979
   695.50         9.6926
   695.64         9.6921
   695.78         9.7006
   695.92         9.7204
   696.06         9.7522
   696.20         9.7951
   696.34         9.8469
   696.48         9.9052
   696.62         9.9681
   696.76         10.0340
   696.90         10.1013
   697.04         10.1696
   697.18         10.2400
   697.32         10.3135
   697.46         10.3913
   697.60         10.4730
   697.74         10.5563
   697.88         10.6376
   698.02         10.7119
   698.16         10.7758
   698.30         10.8282
   698.44         10.8695
   698.58         10.9016
   698.72         10.9267
   698.86         10.9464
   699.00         10.9624
   699.14         10.9772
   699.28         10.9930
   699.42         11.0109
   699.56         11.0311
   699.70         11.0539
   699.84         11.0786
   699.98         11.1049
   700.12         11.1330
   700.26         11.1637
   700.40         11.1983
   700.54         11.2386
   700.68         11.2867
   700.82         11.3457
   700.96         11.4165
   701.10         11.4963
   701.24         11.5792
   701.38         11.6591
   701.52         11.7316
   701.66         11.7954
   701.80         11.8518
   701.94         11.9031
   702.08         11.9515
   702.22         12.0004
   702.36         12.0555
   702.50         12.1239
   702.64         12.2123
   702.78         12.3241
   702.92         12.4591
   703.06         12.6161
   703.20         12.7927
   703.34         12.9862
   703.48         13.1921
   703.62         13.4033
   703.76         13.6105
   703.90         13.8049
   704.04         13.9784
   704.18         14.1180
   704.32         14.2037
   704.46         14.2142
   704.60         14.1325
   704.74         13.9491
   704.88         13.6637
   705.02         13.2844
   705.16         12.8273
   705.30         12.3151
   705.44         11.7756
   705.58         11.2393
   705.72         10.7363
   705.86         10.2925
   706.00         9.9279
   706.14         9.6550
   706.28         9.4765
   706.42         9.3869
   706.56         9.3742
   706.70         9.4208
   706.84         9.5045
   706.98         9.6060
   707.12         9.7144
   707.26         9.8228
   707.40         9.9230
   707.54         10.0034
   707.68         10.0493
   707.82         10.0475
   707.96         9.9898
   708.10         9.8735
   708.24         9.7004
   708.38         9.4769
   708.52         9.2146
   708.66         8.9291
   708.80         8.6373
   708.94         8.3561
   709.08         8.1014
   709.22         7.8867
   709.36         7.7218
   709.50         7.6130
   709.64         7.5624
   709.78         7.5676
   709.92         7.6210
   710.06         7.7104
   710.20         7.8227
   710.34         7.9475
   710.48         8.0798
   710.62         8.2178
   710.76         8.3585
   710.90         8.4984
   711.04         8.6338
   711.18         8.7592
   711.32         8.8634
   711.46         8.9309
   711.60         8.9476
   711.74         8.9049
   711.88         8.8004
   712.02         8.6366
   712.16         8.4192
   712.30         8.1584
   712.44         7.8684
   712.58         7.5658
   712.72         7.2678
   712.86         6.9912
   713.00         6.7506
   713.14         6.5577
   713.28         6.4198
   713.42         6.3382
   713.56         6.3078
   713.70         6.3177
   713.84         6.3540
   713.98         6.4038
   714.12         6.4600
   714.26         6.5222
   714.40         6.5925
   714.54         6.6713
   714.68         6.7570
   714.82         6.8468
   714.96         6.9387
   715.10         7.0306
   715.24         7.1191
   715.38         7.1996
   715.52         7.2684
   715.66         7.3234
   715.80         7.3641
   715.94         7.3914
   716.08         7.4067
   716.22         7.4121
   716.36         7.4109
   716.50         7.4074
   716.64         7.4059
   716.78         7.4108
   716.92         7.4254
   717.06         7.4510
   717.20         7.4862
   717.34         7.5280
   717.48         7.5734
   717.62         7.6206
   717.76         7.6697
   717.90         7.7206
   718.04         7.7730
   718.18         7.8273
   718.32         7.8839
   718.46         7.9418
   718.60         7.9976
   718.74         8.0459
   718.88         8.0809
   719.02         8.0979
   719.16         8.0945
   719.30         8.0716
   719.44         8.0320
   719.58         7.9802
   719.72         7.9220
   719.86         7.8648
   720.00         7.8168
   720.14         7.7878
   720.28         7.7872
   720.42         7.8215
   720.56         7.8929
   720.70         7.9997
   720.84         8.1377
   720.98         8.2999
   721.12         8.4777
   721.26         8.6616
   721.40         8.8433
   721.54         9.0168
   721.68         9.1783
   721.82         9.3251
   721.96         9.4538
   722.10         9.5603
   722.24         9.6414
   722.38         9.6970
   722.52         9.7294
   722.66         9.7422
   722.80         9.7386
   722.94         9.7213
   723.08         9.6950
   723.22         9.6664
   723.36         9.6425
   723.50         9.6308
   723.64         9.6389
   723.78         9.6721
   723.92         9.7314
   724.06         9.8140
   724.20         9.9159
   724.34         10.0329
   724.48         10.1611
   724.62         10.2975
   724.76         10.4411
   724.90         10.5928
   725.04         10.7527
   725.18         10.9185
   725.32         11.0854
   725.46         11.2480
   725.60         11.4022
   725.74         11.5439
   725.88         11.6673
   726.02         11.7663
   726.16         11.8367
   726.30         11.8758
   726.44         11.8826
   726.58         11.8598
   726.72         11.8148
   726.86         11.7583
   727.00         11.7024
   727.14         11.6590
   727.28         11.6378
   727.42         11.6456
   727.56         11.6854
   727.70         11.7543
   727.84         11.8443
   727.98         11.9451
   728.12         12.0465
   728.26         12.1410
   728.40         12.2249
   728.54         12.2974
   728.68         12.3600
   728.82         12.4158
   728.96         12.4684
   729.10         12.5206
   729.24         12.5757
   729.38         12.6388
   729.52         12.7135
   729.66         12.8004
   729.80         12.8972
   729.94         13.0009
   730.08         13.1088
   730.22         13.2182
   730.36         13.3250
   730.50         13.4267
   730.64         13.5236
   730.78         13.6181
   730.92         13.7128
   731.06         13.8074
   731.20         13.8974
   731.34         13.9775
   731.48         14.0446
   731.62         14.0988
   731.76         14.1429
   731.90         14.1811
   732.04         14.2185
   732.18         14.2581
   732.32         14.3033
   732.46         14.3604
   732.60         14.4366
   732.74         14.5343
   732.88         14.6498
   733.02         14.7749
   733.16         14.9010
   733.30         15.0196
   733.44         15.1229
   733.58         15.2050
   733.72         15.2635
   733.86         15.2985
   734.00         15.3131
   734.14         15.3131
   734.28         15.3038
   734.42         15.2892
   734.56         15.2728
   734.70         15.2592
   734.84         15.2518
   734.98         15.2530
   735.12         15.2642
   735.26         15.2852
   735.40         15.3147
   735.54         15.3513
   735.68         15.3944
   735.82         15.4442
   735.96         15.5019
   736.10         15.5668
   736.24         15.6372
   736.38         15.7106
   736.52         15.7834
   736.66         15.8533
   736.80         15.9200
   736.94         15.9832
   737.08         16.0419
   737.22         16.0950
   737.36         16.1403
   737.50         16.1750
   737.64         16.1975
   737.78         16.2082
   737.92         16.2087
   738.06         16.1997
   738.20         16.1809
   738.34         16.1534
   738.48         16.1218
   738.62         16.0920
   738.76         16.0695
   738.90         16.0585
   739.04         16.0615
   739.18         16.0807
   739.32         16.1171
   739.46         16.1676
   739.60         16.2261
   739.74         16.2869
   739.88         16.3460
   740.02         16.4007
   740.16         16.4493
   740.30         16.4907
   740.44         16.5252
   740.58         16.5536
   740.72         16.5766
   740.86         16.5951
   741.00         16.6105
   741.14         16.6257
   741.28         16.6432
   741.42         16.6646
   741.56         16.6902
   741.70         16.7208
   741.84         16.7575
   741.98         16.7998
   742.12         16.8450
   742.26         16.8897
   742.40         16.9301
   742.54         16.9631
   742.68         16.9864
   742.82         16.9984
   742.96         16.9984
   743.10         16.9864
   743.24         16.9631
   743.38         16.9301
   743.52         16.8897
   743.66         16.8450
   743.80         16.7998
   743.94         16.7575
   744.08         16.7208
   744.22         16.6902
